,,,,WITHIN-PHRASE GRAMMATICAL_400-900ms MEAN AMPLITUDE,,,,,,,,,,,,,,,,,,,,,,,,,,,,,,,WITHIN-PHRASE NUMBER VIOLATION_400-900ms MEAN AMPLITUDE,,,,,,,,,,,,,,,,,,,,,,,,,,,,,,,WITHIN-PHRASE GENDER VIOLATION_400-900ms MEAN AMPLITUDE,,,,,,,,,,,,,,,,,,,,,,,,,,,,,,
PARTICIPANT,AGE OF ACQUISITION,PROFICIENCY GROUP,PROFICIENCY TEST SCORE,FPZ,CPZ,FP2,F7,FC4,CP3,P4,O1,FZ,PZ,C4,F4,FT8,TP7,T6,O2,FCZ,FP1,F3,F8,C3,CP4,P3,OZ,CZ,FC3,FT7,T4,T3,TP6,T5,FPZ,CPZ,FP2,F7,FC4,CP3,P4,O1,FZ,PZ,C4,F4,FT8,TP7,T6,O2,FCZ,FP1,F3,F8,C3,CP4,P3,OZ,CZ,FC3,FT7,T4,T3,TP6,T5,FPZ,CPZ,FP2,F7,FC4,CP3,P4,O1,FZ,PZ,C4,F4,FT8,TP7,T6,O2,FCZ,FP1,F3,F8,C3,CP4,P3,OZ,CZ,FC3,FT7,T4,T3,TP6,T5
1,15,ADVANCED,45,2.92035532,5.468326569,2.507113934,1.540376782,4.848133087,5.547548294,3.209459782,2.020205498,6.497551918,4.206544399,4.457247734,4.900073528,3.043258429,1.985341907,2.404590607,1.773923755,7.143111229,1.703639269,4.960104465,1.890125751,5.178025246,3.698762178,5.130047798,1.858333111,6.478311062,5.568516731,1.612868905,2.285828829,1.951822996,2.232883692,1.955854774,2.808165073,9.523091316,2.465588331,1.825734019,8.318771362,8.262260437,7.780792713,6.766778469,7.572213173,9.363103867,8.048501015,6.929841042,3.545643806,3.490605593,3.375500441,6.851036072,9.549841881,2.324849844,5.990418434,1.923488736,7.429797173,7.560611725,8.8612957,6.705820084,9.293377876,6.745583057,3.254457235,1.851107717,3.158872843,2.227612734,4.445045471,3.406713247,5.818239212,2.716439486,1.548576355,6.236537933,5.223221302,5.090488434,3.457612514,6.232133865,5.647386551,5.970637321,5.261995316,2.75842309,2.632491827,2.676152706,4.353922844,6.922699451,2.256589651,3.899473667,1.9953655,4.857072353,5.035464287,5.704041004,3.866343498,5.884619713,4.510562897,1.769840121,2.074053049,2.665550232,2.299039841,2.63757205
2,21,ADVANCED,45,-0.374161899,1.430795789,-0.06201192,-1.423153043,0.504249334,0.833041906,1.981704593,2.074254513,0.038328785,2.358018875,0.91628021,0.498421162,0.857818723,0.426564813,0.617571473,1.787740827,0.350470155,-1.39729917,-1.135325789,0.354365289,0.478013247,1.366363406,1.574712157,1.884963751,0.837172329,-0.319469392,-0.373200178,0.226078987,-0.371569484,0.265265882,0.584523737,0.972117007,6.59305048,2.265929461,-2.222158194,6.062726974,4.498276711,6.912849903,4.928199291,3.222205877,7.28057003,6.412103176,5.070711613,4.919979095,0.1548419,4.231686592,5.329283237,4.626664162,-0.454415232,1.179059505,4.539871693,3.372032166,6.400119305,5.527582169,5.287379742,5.795564175,1.569218516,-2.038125515,4.328591347,-0.911109924,4.748704433,1.720567584,3.406394005,3.544358492,3.639437914,0.747027934,4.269239426,3.511447191,3.35876441,2.747953176,3.342325926,3.425101995,3.666084051,4.745094776,2.510837793,1.78400147,2.079466105,2.619429588,3.569959164,1.941833973,1.422960639,3.821776628,3.213703156,3.378968477,3.841092825,2.605760813,3.74587059,2.428989172,0.940894127,1.970576406,1.610268712,2.023854017,1.622310996
3,15,ADVANCED,45,4.914336681,5.968940258,4.002923012,3.422612429,6.712426662,4.933756828,5.158470631,0.63119024,7.489997387,4.860754013,6.488435745,5.584517479,4.415630817,2.281110048,2.702446222,2.066988468,8.35286808,3.895944595,6.455614567,4.530582905,5.635209084,5.861598492,4.260124683,1.320368886,7.335987568,6.054136276,4.110444546,4.402101994,3.733000278,3.727803469,-0.058882318,2.847732067,7.150278091,1.359146714,-3.079074144,6.584856033,4.334768295,7.006191254,2.604288816,6.452152729,7.33582449,7.093271732,7.788846493,2.045534134,0.159018233,3.658225298,4.665902138,7.971625328,1.234147549,3.937656403,2.007163048,4.709672451,6.574368,5.198083878,3.467621565,7.846758842,4.182282448,-1.828977585,2.475321054,0.331211209,3.331706762,-0.520224571,3.225765705,4.590360165,1.275649786,2.203056812,4.467586994,3.763223886,3.561005354,1.037760019,6.213573933,4.545386791,4.767015457,3.188393831,2.450583935,1.339297533,2.209318399,2.571670771,6.834071636,2.654790163,5.547949314,2.109161854,4.894411087,3.64346242,3.268470764,1.727303624,6.035743713,5.614644527,2.704560518,2.360419035,2.229706287,2.717447758,0.209508613
4,12,ADVANCED,48,-6.291882515,5.775220871,-7.110586643,1.674364328,4.264438152,6.671257019,4.869808674,1.136402011,4.529741764,5.336941719,5.587450504,2.123183012,1.721530914,3.591419697,1.674445033,1.901895761,5.295107365,-5.747623444,3.642215967,-0.46656245,6.735399723,5.56099081,5.337206841,1.767595053,6.319971085,5.532394409,2.751175404,2.150576353,4.194006443,2.966275215,2.636701107,0.140631989,6.671444893,-1.888300657,3.493540049,5.16609478,8.130643845,7.779336452,5.295400143,3.75761199,8.906633377,6.032824039,4.427477837,3.849486589,5.496006966,5.283076763,5.614655972,3.661701679,-1.962779284,4.254069805,2.488975048,7.311062336,6.941467285,8.627711296,5.182867527,5.455859184,6.093058586,3.771951199,4.100340843,4.145472527,4.942480087,5.863275051,-1.521282434,4.52430439,-3.30482769,2.78140974,3.046007872,5.151945114,5.842029095,2.070374966,2.31831789,6.303815365,4.078865051,2.590275764,3.023173809,2.61044383,3.860050917,3.79564929,2.636836052,-2.777765036,2.751371145,1.888638973,4.974832058,5.513876438,5.327831268,2.782075167,3.369264603,4.388007164,2.792882204,3.409783125,2.930324793,3.920797825,2.47871089
5,13,ADVANCED,46,-1.944474936,3.372888565,-3.547908783,-2.35395813,1.39083457,4.418050766,4.533908367,3.632875204,0.339234352,4.145002365,2.545742512,-0.45714128,-0.883281231,3.929356575,4.100241661,3.879519939,1.73252368,-3.31397891,0.538214445,-2.542233229,3.303258657,3.739497662,4.839823723,3.143788815,2.678543329,2.933411121,-0.104749188,0.086137265,2.01557827,2.053019762,4.446106911,-2.075700045,8.029414177,-3.578349829,-1.774502277,3.488428831,7.474040508,8.348690987,6.587780952,2.859658718,8.474005699,5.420903206,1.110258579,-1.213969946,4.834076881,6.011505127,7.153234482,5.882203579,-2.241844177,2.703505993,-2.678842068,6.283559322,7.128464222,8.22500515,6.121050835,7.235122681,5.288488388,0.904339135,-0.488650084,2.490047216,2.558071375,5.450226784,-2.811692476,11.22632504,-3.143790007,-2.58544755,5.087244987,9.711857796,12.05907059,8.895301819,3.554900646,13.06371975,7.67819643,2.402026892,0.143813238,4.406246185,8.816660881,10.43842983,7.359450817,-3.305947781,3.009936333,-1.937626362,7.679748058,10.03866959,11.53260708,9.319036484,9.834718704,6.185237408,-0.116736434,1.615751863,1.862218022,5.200304508,6.512704372
6,17,ADVANCED,40,-9.204099655,0.275669277,-12.44452572,-5.927005291,0.098177046,1.861249447,-2.412178516,-0.295958638,0.278247565,-0.520522416,-0.36620602,-3.021544933,-3.673443079,3.073552132,-1.810589314,-2.509081841,2.310601711,-10.0547533,-2.547753334,-5.725074768,1.602018476,-2.318719625,1.63568902,-2.202920914,2.226411104,0.814555943,-0.349443138,-2.561911106,1.535061359,-2.176706553,2.077308416,-0.883769989,-2.298504353,-3.213744879,-2.233986139,1.91294086,-1.783043385,-1.970247984,-3.806549549,2.246862173,-2.021784544,0.132478416,1.534523487,1.935320973,1.741560698,-0.413334429,-4.434358597,2.172827244,-2.725006819,-0.239564151,2.179115057,-1.762682199,-2.093179941,-1.34495604,-4.783348083,-0.276222557,-0.711550772,1.010879874,1.082736373,1.721541524,-0.118705951,0.321994334,-2.179288864,0.966041088,-4.049246311,-5.254448891,4.934846878,-0.650734663,4.102775574,1.30798912,2.535838366,2.489234686,3.668816805,3.664673567,3.015419006,0.708858788,4.591285229,1.897386432,2.790955067,-5.096652031,-1.3535676,1.964807987,-1.529705167,2.993438005,1.117969632,0.547599673,1.141720057,-1.011878729,-2.507710218,3.510309935,0.034915097,4.345805645,0.752622724
7,13,ADVANCED,46,1.488481879,2.018856287,-0.592726171,2.061835527,2.104306698,1.940588236,1.788872838,0.849871099,2.545518637,2.422049284,2.300413847,1.286263943,3.350344181,0.869153142,1.944243431,0.730206728,2.40408349,1.223456025,1.995495439,2.031930923,1.987725139,2.394124985,1.598922133,0.74364984,3.108920097,2.258709431,2.171668053,3.276772499,0.546870589,2.973321915,0.465354979,1.505044341,1.750717282,-1.490164042,1.756670117,1.496604323,2.7633214,0.797001541,-0.236512348,2.860200882,1.396472931,1.399297357,0.741523921,-0.06155302,2.021402597,0.307499498,-1.067983866,2.080526352,1.00635457,1.939424872,-0.586450994,2.92351675,1.151842594,2.05436039,-0.805448472,3.143639803,2.541711092,2.044651985,0.408613384,2.160182238,1.016545653,1.085997462,2.149406672,4.0008955,-0.087654486,2.202925205,3.239505053,3.747993708,2.712772608,3.140328169,2.825110197,4.273058414,3.0855093,3.259121656,1.845474958,2.857919693,1.477133155,2.393754959,3.184586525,2.929723024,2.371939182,0.228927284,3.501554251,2.70554471,4.015027523,2.635317087,2.970667362,2.543542147,2.134298801,1.534489632,2.492488861,1.466046333,2.707822084
8,11,ADVANCED,42,0.559253156,2.597653866,0.275343806,0.134203449,3.446402073,4.075227737,2.899880886,0.983086884,2.399889469,2.238688469,3.619822979,2.562570333,2.652960062,3.583623409,1.571912289,1.242250919,3.437273741,0.110329777,3.451310158,1.450091243,4.088126659,2.985134125,3.745330095,0.408545285,2.997444868,3.837545872,1.329746366,2.43379283,2.79229784,1.938040137,2.466956615,1.593384862,9.108178139,1.317409873,1.170216084,5.636561394,7.772726536,6.806711674,4.147840977,5.785375118,8.731969833,6.728595257,3.774593592,1.671812296,2.848537207,3.399762154,4.392490387,9.525220871,1.518937826,4.954541683,1.054751754,7.419218063,6.679428577,7.678001881,3.694995165,9.751357079,5.451855659,1.2215904,1.964264631,1.702787757,2.82855916,3.42034483,0.737867117,5.707652569,0.944635689,0.212781176,1.937833667,4.32578516,4.918952465,2.936515093,2.857009172,5.737132072,3.571805716,0.532291234,1.225895166,1.141274214,2.968258858,3.426038265,3.850936174,-0.009152465,-0.687421381,1.234272718,3.363955975,4.273097038,5.006516457,2.976031542,4.773792267,1.787624598,0.338613182,1.311123133,0.513770282,2.053500175,1.783889055
9,22,ADVANCED,50,-12.45558357,3.046337843,-13.74424648,-10.17683506,-0.219569415,3.024128199,4.559664726,4.097780704,-1.581079364,4.651708126,2.903971434,-2.287963867,-0.656135559,3.280285358,4.093374252,3.75162816,1.372504234,-15.6137495,-4.753837585,-3.044382334,1.01186955,4.103941917,4.08775425,3.298832893,2.581472397,-1.544359565,-4.377257824,1.722005725,-1.213546276,2.526863337,3.693184614,-14.80529022,7.756120682,-16.6074791,-10.89338017,1.220777631,7.362384796,11.80328369,8.353301048,-3.366957664,11.46590519,5.559047222,-3.287286758,2.050976753,5.360927582,8.783744812,9.855093002,1.700278521,-17.57142448,-4.901633739,-0.831726909,3.565331459,9.094293594,9.670974731,8.541186333,4.546070099,-0.21139586,-2.523622036,3.700311661,1.117562532,6.118256569,6.526726246,-13.63294983,9.333865166,-15.86924744,-9.467638016,2.132405043,8.997415543,10.75795269,8.896156311,-1.220320582,12.22310066,6.553788185,-1.762385726,-0.864106059,4.458170414,5.334897518,9.033967018,2.785041571,-15.71944904,-3.514567614,-2.142762661,6.008776665,9.478625298,10.31231022,8.466074944,7.055766582,1.098016977,-3.419709682,2.64928484,-1.899106741,4.853975296,5.56937933
10,18,ADVANCED,40,-5.739465714,4.321204185,-6.416632175,-1.764498472,1.347701311,4.753248215,3.420636892,3.524369478,1.043700695,4.124996185,2.182273149,-0.496317387,-0.324923575,3.944285154,2.425782681,2.789228916,3.005704403,-6.510473251,0.37501201,-2.303431511,4.563835144,3.047903061,4.953875065,2.842978954,4.143779755,3.340730667,1.474497557,0.786556304,3.344875574,1.910124898,4.471339226,-8.098232269,7.929459095,-6.902000427,-6.805214405,3.247294426,7.070649624,7.283385754,6.309269905,-0.645256996,9.027905464,5.247179508,0.714377522,2.42668128,3.061938763,4.114550591,6.064188004,3.765075207,-9.523514748,-2.703700066,1.326008081,4.941013336,6.378156662,8.674986839,6.020227909,6.097465038,1.600685239,-1.532018304,2.850285769,1.168156505,4.037065983,5.452473164,-8.935375214,5.054850578,-7.645127773,-5.54185009,2.567485571,5.000438213,4.837010384,3.75449276,-0.842589021,5.378545761,3.733507156,-0.549336374,1.923021436,3.378913164,3.681485653,3.118041992,2.447572708,-10.30908203,-2.301147461,0.193142593,4.027151585,4.636520386,6.124117374,2.741286755,4.12539959,1.854419351,-0.733223438,2.560135603,1.640216827,3.280513048,4.643992901
11,11,ADVANCED,49,-1.983455777,2.320125341,-2.580824852,-0.233211413,0.349725485,3.533406734,2.755126238,1.833993435,-0.506799102,2.96405077,1.386074305,-0.778375924,-0.421336353,2.361852884,0.658941805,0.716336548,0.728754222,-1.651159525,-0.396912575,-1.310134411,2.696109056,1.942903042,4.333052635,0.961128175,1.355599046,1.055077314,1.685881019,-0.417819262,1.982239842,0.085521147,2.700265884,0.103628717,5.949074745,-0.34009397,1.720939636,3.322026014,6.976580143,6.488481998,5.515928745,2.973655939,7.036088943,4.58479929,2.615174294,2.300756693,5.187286854,2.992147684,4.253128052,4.073909283,-0.004027728,2.957704782,1.037476182,5.858253479,5.62240839,7.888719082,4.413451672,4.751585007,4.094836235,3.995108128,2.354459286,4.983250618,2.634260178,5.664200306,1.236611366,5.412996292,0.249391481,2.694018602,3.072884321,6.612763882,5.82679987,5.331232071,3.166349411,6.916235924,3.802577972,2.250584841,1.361305356,5.033964634,3.112028122,5.125118732,3.446059465,1.525226235,3.408936977,0.353416055,5.544187546,4.729999542,7.668020248,4.921218395,4.036943913,4.26895237,4.267465115,1.760863066,5.163381577,2.510268688,5.484804153
12,13.5,ADVANCED,42,0.138377279,6.24623394,-0.41046375,-1.245688319,3.800840378,7.52785635,4.800239563,4.037723541,4.280865669,6.750451565,4.215453625,3.315060377,1.644059062,2.530395508,2.324795961,2.439816713,5.688898563,-1.383677244,2.329673767,1.015411854,6.991448402,4.887660503,7.681798935,3.284096241,5.786625385,4.468721867,0.874286413,1.914303422,1.309786439,1.845565915,4.169020653,1.887965322,17.32518387,2.733180046,-1.529468656,9.657461166,13.97878265,12.83860207,9.97802639,8.656991959,17.15151024,10.74620152,8.109417915,4.646879673,5.464574337,5.370548725,7.532869816,11.68960476,0.098633811,5.743020535,4.18712759,11.32294178,12.22498226,15.11636543,8.685498238,14.96496677,7.803349495,1.899209619,4.204627514,3.349615574,4.686253548,7.209514141,1.663881302,12.80717182,1.364433885,-0.093590952,6.199211597,11.12613392,10.09979153,8.788163185,6.568796158,13.32862759,7.086608887,5.013030052,3.610213518,4.223664761,4.477103233,5.625577927,8.474192619,-0.168728128,4.613383293,3.127127171,9.306628227,8.894571304,13.05125523,7.001984596,11.41394615,6.807546616,2.290102959,2.33344698,2.706754684,3.237291813,6.6860919
13,10,ADVANCED,43,0.885045767,1.943026066,0.956640184,1.531135559,2.030098677,2.269165754,1.504306197,-0.45021531,2.102432966,1.597579479,1.926015377,0.915278971,1.206854701,1.910649657,0.351490766,-0.047934931,2.730617285,-0.317855388,2.256146431,0.497708619,2.387132406,1.920552492,1.305123448,-0.128344029,2.332716465,2.199821711,2.45385766,1.975683451,2.22337079,1.78856504,0.811087072,-0.015359384,5.934725285,-0.501838267,2.219809055,4.721652508,5.411907196,4.73039341,1.593759656,3.435065985,5.894618034,4.529172897,3.606729269,2.36230588,3.182008028,1.730725169,2.295183897,4.153198719,-0.562439799,3.349740267,1.45869875,5.164219856,4.780919075,4.721751213,1.96579659,5.107252121,4.543375015,2.78743124,1.994570732,3.687973022,2.441213369,2.422919512,-3.102131128,5.084209919,-4.847802162,1.255284905,2.766398191,4.201439381,3.061745167,2.692564726,3.346981287,5.105125904,3.373765945,2.789406776,0.973239243,1.809272766,0.432942986,1.774134159,4.040547848,-3.333780527,2.89634347,-1.931970119,4.209452152,3.358340263,4.116146088,2.303595781,4.844141483,4.14875555,2.142242193,0.893618047,2.560386419,0.937634349,1.275978446
14,19,ADVANCED,46,-6.110232353,3.111386061,-5.950518131,-4.992544651,1.35034883,2.389154434,2.147527456,1.253682017,-0.31318289,2.794472694,2.123342037,-0.055746973,0.722233474,1.894138575,0.421860963,1.202568889,1.435462117,-7.359082222,-1.433809757,0.489147395,1.941201091,1.97265625,2.672883749,1.369470239,2.736596823,0.861973047,-1.121144176,0.873968959,0.590004861,0.288879931,2.125744104,-4.506707191,6.128061295,-5.506548405,-4.083052158,3.694792509,5.675177574,5.274771214,3.275342703,2.496749163,5.954766273,4.667598724,2.262753725,1.468592167,3.001857758,2.226524591,3.614896297,5.340425491,-6.4387393,0.292914212,1.175272942,5.038294315,4.986760616,5.959499836,3.162143946,6.291389942,3.294124365,-0.424010307,1.319222927,1.409576058,1.689819694,3.503705502,-4.138877869,4.970520496,-4.491569042,-2.897623777,3.340161085,4.797776222,4.336092949,2.258946657,2.129441977,4.676693439,4.059604168,1.741121292,1.081357718,2.725456953,1.294881225,2.351259708,4.378955841,-5.716649532,0.661405385,0.396915287,4.185896397,4.181216717,4.584213734,2.340856791,5.256995201,2.972484827,0.233248636,1.096419573,1.637901306,1.169652939,2.508368015
15,14,ADVANCED,45,0.399368674,5.0772295,-1.059746742,2.709312677,3.317245722,5.810972691,3.378106594,1.903610587,2.951347113,4.348957062,3.928766966,3.035041332,1.932219625,5.123358727,1.913468361,1.196548104,3.64097023,-1.217511892,3.102931976,1.063339949,5.680451393,3.779703617,5.060901642,1.509444118,4.481650352,4.611251831,4.073729992,2.183170319,4.816927433,2.465677977,4.016917706,-2.167928696,3.92222023,-2.611412287,-1.14202261,2.02711916,4.088378906,2.882637024,1.763207674,1.48484695,3.743928194,2.759066582,0.946976244,1.207349062,3.912351847,1.262518883,0.814048648,2.125059366,-3.303802013,0.71436125,0.174181446,3.715223789,3.385588169,3.849731922,1.188869596,3.579013586,2.211014271,1.358846664,1.541326165,2.92172575,2.181502819,3.460098505,-1.862378478,2.898808479,-2.063010216,-0.429530084,2.030094385,3.839023829,2.125936985,1.399904013,0.511094511,3.001173496,1.84527874,1.161071897,0.935449243,3.383052588,0.411539406,0.272177726,1.565143704,-2.743777037,1.291964173,0.625744522,2.852911711,2.226713657,3.842858076,0.513307869,2.352178097,2.20805645,1.37482059,0.657423377,2.679836273,1.006868601,2.606702566
16,11.5,ADVANCED,43,-8.820083618,1.148002386,-9.331979752,-2.439360142,1.447194695,0.662547946,1.036973596,-0.505068541,-1.139995813,0.601519108,1.815800905,-0.490096837,1.601230264,1.647419572,1.497083187,-0.119457275,1.794831634,-9.705295563,-1.913153172,-0.134932145,0.471531719,1.442291021,0.405240476,-0.4377729,1.785884023,-0.156482115,0.64391768,1.881174445,1.644711375,2.001890182,0.82603246,-9.932948112,3.368032694,-10.15532303,-4.184607029,2.320207834,1.661715388,3.718103886,1.168127775,-1.460419655,3.24924469,3.253884554,-0.888504505,1.448442459,1.193973303,2.918573856,2.258628607,2.169177055,-10.46737576,-2.376826048,-0.796039879,1.468027353,3.857630253,2.09339118,1.266351342,3.161156654,-0.219716996,-1.319040775,2.473244905,0.697667241,2.801523447,1.000799656,-8.057797432,3.69317317,-9.397924423,-2.662082195,0.959129572,2.691926718,3.373507977,1.902955055,-1.424314857,3.401682615,2.284270287,-1.868038177,-0.37083742,2.612849474,2.037880898,2.136522532,1.941699028,-8.464629173,-1.242375255,-2.379383087,2.059237719,2.889104605,3.025513887,1.720829368,3.049140692,0.948481679,0.20360063,0.984900057,1.72295177,1.75878787,2.581876278
17,13,ADVANCED,46,-0.871204078,8.460131645,-1.173327684,-0.616339564,7.241815567,8.610965729,7.638284206,3.314826012,5.889198303,8.353443146,8.200636864,5.34600687,4.676566124,4.729093552,5.315547466,4.45413208,8.461150169,-2.875144958,4.222474098,2.809409142,8.15920639,8.089313507,7.467795372,3.626121521,8.650351524,6.320799351,2.257279873,5.25731945,3.77063179,6.095695019,3.875935793,0.703727782,11.36950779,0.618295908,0.201321244,6.689321518,11.14355659,11.95538616,6.453861713,5.593900204,12.43850517,8.253761292,5.003153801,3.100584745,4.766326427,7.183293819,8.373467445,7.857903004,-0.551783621,5.084801674,1.36296308,8.952010155,10.56475163,11.41309834,7.105679989,9.133460999,6.28934145,1.912929058,4.129389286,3.497394085,6.205868244,4.80502224,0.57067889,8.458641052,0.570994139,-1.285466671,4.424476624,8.342607498,9.350384712,6.077495575,3.594565868,10.04975605,6.006345272,2.965387344,2.198149443,3.096813917,6.350721359,6.939510345,5.359625816,-1.051471949,2.251299143,0.18560563,6.280641556,8.239273071,9.786988258,6.241079807,6.688587666,3.681511879,0.833337903,3.074577332,1.718488455,4.914226055,4.775707245
18,14,ADVANCED,46,-4.19588995,1.429184794,-6.153277874,0.452543288,0.636995316,2.869192839,0.086309947,0.177885681,0.34741199,1.417753458,0.576791584,-0.795605183,0.198413789,2.822139502,-0.106937371,-0.923598349,1.143937111,-4.782087803,0.771999598,-1.215115547,2.785493135,0.24729307,2.327560425,-0.616104305,1.619379997,2.149649858,1.942146063,0.571999967,2.408898115,0.640518069,2.338365793,-5.903478622,6.425945759,-7.711881161,-2.454538822,2.662396193,5.05134058,5.288831711,1.880156279,0.370873839,6.147954464,4.384359837,0.020167658,0.939988792,2.226186752,3.133140802,2.148059368,2.966948271,-7.659554958,0.469666511,-1.214545965,4.645956039,4.908335686,5.132719517,1.822630405,5.266034126,3.112200737,0.53446579,2.055963278,1.862025976,2.811801672,2.558866739,-7.814676762,3.291213036,-8.507616997,-2.82699275,0.178803682,2.421041965,2.924669027,1.100750685,-2.0335114,3.097351313,1.953612566,-2.208321571,0.599726319,1.317197442,2.785282135,1.000448704,-0.068090305,-8.930699348,-1.718332171,-1.712434053,1.563017726,2.743674755,3.092442036,0.324112236,1.930242658,-0.075240731,-0.412365079,1.903684378,0.700171053,2.181566238,1.829720855
19,13,ADVANCED,41,-1.806141138,5.486902237,-2.270737886,0.230792359,4.561488152,6.085536957,7.488996983,7.817394733,3.048362255,6.461607933,6.045897484,2.440259695,2.294387102,4.924636841,6.825099945,7.598609447,4.885698795,-2.564976692,2.381948948,-0.945761263,5.139535904,6.973414421,7.065476418,7.18228817,5.305639267,3.889271736,1.748744845,3.660369873,3.410426378,6.344745159,6.168977261,-5.051773071,8.366502762,-5.064236164,-3.682952166,4.034650326,8.55559063,9.458638191,9.555803299,0.444515169,9.268529892,6.553346634,1.488536,0.161265671,3.694094896,6.939238071,8.607898712,4.145816326,-5.883284092,0.633658051,-0.697388053,6.470191956,8.58601284,9.88186264,8.523596764,6.577946663,3.502040386,-1.360319495,2.237032413,0.852563322,5.140944004,6.548703194,-1.377799034,7.226163387,-2.53149581,1.021674991,4.265758514,8.035421371,7.695886135,7.126923561,3.181297779,7.70479393,6.104123592,2.791504383,1.842646956,3.912986994,5.849803925,6.596400738,5.175257683,-1.16185081,3.166316986,-0.188308686,6.741452217,6.878361225,8.308978081,6.191976547,6.348764896,4.778204918,2.610240698,2.791811228,3.083674431,4.77499342,5.172411919
20,17,ADVANCED,42,-3.021119595,3.281099796,-3.193463802,-0.062976569,3.04262805,3.505028725,2.607352972,1.23089838,1.636197925,3.023160934,2.843302727,1.278954983,1.091904283,1.567317009,1.233512402,0.00658664,3.318164825,-4.340163231,0.799129546,-0.09929131,3.106170893,2.951027632,2.958189487,0.511977732,3.739316702,2.17604661,0.621694803,0.805553615,0.923870862,1.567356229,1.837947965,-1.729158282,6.841201782,-1.740676522,-0.229135409,4.969521999,6.343900681,6.77455616,5.598304749,3.909365177,7.193742752,6.031395435,2.902969837,2.158624649,3.315672636,3.654558897,5.331667423,5.949372292,-3.166571617,2.576551199,0.266904324,4.689591885,6.584749222,7.166180611,5.43676424,6.392831802,4.047840118,1.347057462,1.894392848,2.183586597,3.03091836,5.33788681,-2.892991543,4.037330151,-3.222858191,-0.32942912,4.20277977,4.008804321,3.268506289,1.746298432,3.090054989,3.972337008,3.98066926,2.397159576,1.979396701,1.612573266,1.159469128,1.621474743,4.365475178,-4.660995483,0.77518487,0.630080104,3.222540617,3.505265236,3.954620123,1.871793866,4.132272243,2.417810917,1.056652069,1.237897754,1.212973356,1.157823801,2.311247587
21,13,ADVANCED,42,-1.031173944,4.536013603,-2.046791553,1.467465043,2.373434544,5.820281029,4.616730213,4.522747517,1.520889163,5.28911972,3.805710316,1.303828359,1.766463161,3.837357759,2.179129601,3.433362246,2.936899185,-1.1187433,1.04047513,0.168940529,5.060585499,4.415708542,5.544197559,3.568143606,4.293471813,3.28259778,3.473352194,2.162394285,3.411209583,2.770347834,4.720922947,-0.876005828,8.629751205,-1.484864712,1.742503762,4.188150406,9.363693237,8.29833889,7.818209648,4.190251827,9.775214195,5.949874878,2.754768372,2.289294958,6.871105194,3.074484348,6.40427494,6.504673958,-1.110486627,4.225932121,0.894610643,8.376570702,7.43287468,9.817297935,6.874236107,7.922911644,6.931666851,4.743997574,2.35977006,5.566758156,2.630941153,7.591517448,-0.358585685,8.243062973,-1.308763862,1.703974366,5.042742729,8.743421555,7.672420979,7.452661514,4.876311302,9.683850288,6.140583038,3.13181591,2.259241581,5.190670013,2.306051493,5.903219223,7.090222836,-0.298073202,4.225106716,1.560217023,7.356210232,7.360355854,9.548443794,6.464074612,8.141589165,5.629536629,3.458079576,2.131251097,3.634323835,2.140537739,6.727757454
22,16,ADVANCED,41,-3.988251925,3.352849483,-4.322423458,-0.019386198,2.054505825,3.903664827,2.744458914,0.454967558,1.338064075,2.870009661,2.899204254,0.2411782,1.435158849,5.203801155,1.747738004,0.898041546,2.544596195,-4.604914665,1.667039514,0.851322293,3.431582928,2.949272871,3.342852354,0.521652997,3.299442768,2.905554533,2.42259717,1.805294156,4.083220482,2.331145763,4.074075222,-1.923919916,6.233361244,-2.797930717,0.006041383,2.627287865,5.282230854,5.831428528,3.614346266,2.600822687,6.51583147,4.283238411,1.424208045,0.820655763,4.289186954,3.413807154,4.428394794,3.655676842,-2.706284285,2.513059378,-0.986781478,4.907274723,5.339010715,6.170781612,4.068295002,5.327809811,3.740845442,1.513365507,1.319991469,2.800210953,2.857902288,4.179923534,-0.574251592,4.320471764,-0.897468507,-1.309767604,1.884649158,3.763251781,4.473422527,2.313534975,1.708546162,4.523970604,3.245907307,1.157099366,0.825955272,2.156011105,3.031549454,3.586793184,2.576558828,-0.966447592,1.714920521,0.248420522,2.749810219,4.460821152,3.957043648,3.036707878,3.707962036,2.08808279,-0.542184055,1.805198669,0.879377127,2.207446098,2.76321435
23,12,ADVANCED,40,-1.248693466,5.269650459,-1.899799347,0.628695548,5.865306377,4.771525383,4.456332684,2.218695879,4.547843933,5.307211399,5.909836292,4.009801388,4.343761921,2.334595203,2.567800999,1.476911068,6.162791252,-2.330739975,3.277223349,3.140632391,5.151530743,5.683185101,3.905401707,1.459276199,6.062584877,5.012469769,2.351628304,4.503547668,2.832700968,4.026013374,1.956104159,-0.246172845,10.38335514,0.048797913,1.273512721,6.880632877,9.204731941,8.501690865,8.078569412,6.178765297,10.96573925,7.902538776,5.674315453,4.944169998,4.359848499,4.295599937,6.549929142,8.092830658,-1.445801497,4.948224545,3.26077199,8.348095894,8.532197952,10.17818546,7.673903465,9.553030014,6.678736687,3.083337784,6.436271191,4.294883251,5.45714426,5.09944582,5.030709743,13.03738022,4.123515606,6.671868324,10.59472561,11.06624031,11.05000305,7.28243494,10.61386871,12.79337215,11.15081501,9.719220161,7.455289841,5.995753288,5.338461876,6.126213551,12.11056709,4.385011196,8.998364449,6.672197342,10.68004799,11.40771198,11.43136215,6.776185036,13.10493851,10.00273323,7.272634029,7.444504738,6.778131962,6.684291363,5.112568855
24,20,ADVANCED,45,0.563111246,9.116360664,-0.363029391,-0.579651892,7.155870438,8.750653267,8.010654449,3.198354244,5.69314146,8.808278084,9.437252045,5.245760441,3.959899664,4.164905071,4.733307838,2.80571866,7.171682358,0.003954359,4.32759285,3.506165504,7.86965847,9.599604607,7.966292381,2.737307549,8.106306076,6.844460011,0.715751052,5.305699825,2.242507458,5.934182167,4.109678268,1.03119719,13.24111462,0.135118976,-1.204677701,7.965874195,12.88220501,14.12242222,8.885123253,6.28107214,14.98211956,11.73112106,4.813435555,5.069513321,8.239188194,9.038363457,9.045044899,8.545972824,0.659260213,4.481890678,4.343218327,10.05636501,14.07823181,13.70852757,8.912339211,10.48130131,7.377417088,1.640604973,6.863535404,5.070851326,9.348236084,8.737888336,-0.145375341,12.49761677,-0.69901377,-1.085578918,7.383152962,10.60828018,12.62594128,9.565694809,5.187609673,13.66724205,10.36029911,4.79062891,3.505938053,5.361184597,7.557592869,8.93858242,7.27581501,-0.354874253,4.091161251,2.723700047,8.52381897,11.85855484,11.67418671,8.940526962,9.672673225,6.328489304,0.509226024,4.479221344,2.851022959,7.000744343,7.125747681
25,14,ADVANCED,40,-7.996838093,-0.960984886,-8.250491142,-4.488202095,-1.290447831,0.872935593,-0.336735696,-0.967697203,-3.126715899,-0.427857071,-0.099040143,-2.943166733,0.569102824,1.221012592,-0.11788436,-0.67398721,-1.97454679,-7.472702026,-3.198633909,-2.183025122,0.45895353,-0.066949271,0.873751879,-0.920567572,-1.396038651,-1.318423271,-0.690314651,0.944358647,1.012441158,1.181629777,0.948072731,-9.205510139,2.609985828,-8.367236137,-8.809959412,-1.145966649,2.467059374,4.867022514,4.412396908,-4.120296955,4.512178421,1.30550158,-2.960422993,1.299861193,1.38928628,4.554910183,5.638245583,-2.477842569,-9.492696762,-5.632278442,-0.243408352,0.004814676,3.125961304,5.352832794,4.614992142,-0.403802931,-2.651966333,-4.33465147,2.879582882,-1.752712727,3.588022709,3.160872459,-8.292970657,2.571557999,-7.102106571,-6.330455303,-0.067752339,2.576289654,4.567820549,2.863219261,-3.565678358,3.554298878,1.952778459,-2.161134958,2.627672911,0.925670445,3.201069593,4.02170372,-1.767361164,-9.150014877,-5.061158657,0.786531329,0.224414945,3.164333344,4.670608997,2.997361422,0.215021357,-2.529999971,-3.190633774,3.125009775,-0.529373109,3.595701456,2.12859416
26,15,ADVANCED,42,-5.459121704,0.119534627,-5.631382942,-1.480060101,-0.159125417,1.40451169,0.153933182,1.454443455,-1.102398872,-0.100646138,-0.064913884,-1.981930256,4.424715996,2.149672031,0.788376868,0.800462306,-0.290635765,-6.986358166,-0.330634147,-0.567728341,1.183116674,-0.291897714,1.602416754,1.07855618,-0.14086026,0.091582097,0.4875108,0.461592048,1.776425242,0.69606179,1.74659884,-3.877386093,12.37756443,-5.644749165,0.099078208,4.977610111,10.62925529,9.934938431,6.072546005,4.255827904,13.05851841,7.069393158,2.946807623,6.529220104,5.180922031,5.183598995,6.207157612,7.568078995,-4.456653118,4.503214359,-1.215651631,9.469361305,8.991471291,10.76299763,5.962107182,10.30627441,7.081314564,2.661971807,3.260362148,5.003977776,4.531650543,4.974698544,-5.415429115,5.989041328,-7.213496208,-2.0037148,1.086454511,4.761280537,4.02130127,2.044980764,0.357144952,5.728028297,2.623406887,-0.807974696,7.295378685,1.494642258,0.551641107,1.781496763,2.895901918,-7.343788624,1.255511642,-0.293796092,4.184247971,3.674275637,4.865550041,1.73513937,4.851799488,2.868633747,0.630577922,1.456844687,0.71049881,2.166477203,0.969762802
27,14,ADVANCED,42,1.108379126,4.539863586,1.162203908,2.053699255,4.356375694,5.019594669,3.837992668,2.149334908,4.856698513,4.177130699,4.566603661,3.327214003,2.623280764,3.414835453,1.548271894,1.620926857,5.861486435,-0.064387321,3.114092112,2.199761868,5.396547318,4.160815239,4.581039429,2.023044109,4.63875246,4.110117912,3.121997118,3.051157713,3.850147009,3.088664055,2.702714205,-7.894062996,1.885246754,-7.643168449,-4.359317303,-0.936093748,1.921725869,0.755671024,0.044590782,-3.531863689,1.478095531,1.774116278,-3.699270964,0.61537081,0.971384943,-0.309803188,-0.549510956,-1.46590364,-8.926749229,-4.389621735,-0.327449769,1.363170266,1.778216958,1.536932111,-0.139392018,0.942691743,-2.67070055,-1.287494302,1.03973496,0.044929478,0.268724144,0.39960736,-2.799197435,1.784279823,-3.098061085,-1.449435115,2.700929403,1.903498769,0.743573725,-0.153279424,0.000259196,1.412050009,2.251283646,0.356980741,2.358472586,0.286518335,-0.188308313,-0.249243066,1.694562554,-3.37825036,-1.014782786,1.888908386,1.513518929,1.367511511,1.15628016,0.042628776,1.545231938,-0.454320163,-0.01369649,1.906404018,0.239671275,0.579111099,0.522682786
28,15,ADVANCED,44,-1.525072932,2.308118343,-1.857135177,0.574867725,-0.443672031,2.685807943,2.019983053,1.765590191,-0.257708818,2.460540056,1.064543128,-1.187734485,-0.339606673,2.647267342,0.730637074,1.139332294,0.747527301,-1.118472576,0.142266989,-0.860581517,2.196466446,1.711175203,2.841977119,1.387907028,1.780972004,1.082038522,1.005530596,0.569260895,2.216169357,1.026180983,2.624146461,-0.336504042,5.786284924,-0.052633338,0.25104326,2.268950701,5.815630913,5.027454376,4.822181225,1.224626184,6.117036343,3.741659164,1.375312209,3.007455587,4.238154888,3.291594505,4.347998142,2.273430347,0.101918735,1.157877803,2.630641222,4.397992611,4.934804916,6.173826218,4.427290916,4.256201267,2.830122709,2.150454998,3.237399817,3.522973299,3.591475487,4.462305546,0.36844182,2.329491854,0.874862373,0.255546212,0.517309189,2.458549261,3.116732359,3.265810013,-0.742390573,3.253495216,1.224911571,0.089380682,1.355114222,2.058484077,2.137617588,3.113387108,0.007205826,0.458679974,0.146338716,2.20741725,1.837600708,2.984187126,2.998157978,3.110731602,0.94195962,1.010477543,0.163547978,1.780414701,0.936722815,1.859897017,2.266846657
29,14,ADVANCED,43,-0.809838295,3.984606504,-1.283517718,-0.180078045,3.408904791,2.877655029,3.678549528,0.395191908,2.93163228,2.994819403,4.014086723,2.243682861,2.910560369,2.664629698,2.273281336,0.966003418,4.56961298,-1.952929974,1.596117377,1.669553399,3.286495686,3.95809269,2.498680115,0.451819927,4.754454613,2.699620008,1.531755805,2.804883957,2.585811615,2.597597837,1.997011423,-2.020801306,2.716392279,-2.791661739,-2.110300064,3.085100174,2.907992363,3.290845633,3.783333302,1.331447244,3.742180109,3.215886593,1.39046824,1.208756566,2.978814125,2.010042191,3.366504192,2.813922167,-2.504187584,-0.081527099,-0.057672802,1.812944651,3.417310476,3.777784824,3.620217562,2.823276997,0.318080038,-0.076848954,1.41329968,1.882891893,1.803937554,3.888575554,-2.523108482,7.057779312,-3.016098738,-2.003087521,7.430783749,6.07738018,6.672206879,4.849549294,3.853080988,6.73256588,7.741633415,3.859077692,2.896240711,3.861701488,4.445532799,4.888630867,6.7044034,-3.289605141,2.300573349,1.787256122,5.799990177,7.333999634,6.332288742,4.746632576,7.799032688,4.840553284,0.686575651,3.570430279,2.404897928,4.258615494,5.141278744
30,17,ADVANCED,44,-3.730773449,3.807370663,-3.595089912,-2.711422682,2.932011843,2.452887774,3.962527037,0.857830524,1.664633751,3.702838898,4.370350838,1.560847163,2.512052059,0.300300628,3.051729441,1.656532645,3.246663809,-5.153110027,0.484664142,0.879970014,2.391256809,4.378159523,2.151022196,1.387403011,3.631775379,1.734798551,-0.66146189,2.832949162,-0.156450391,3.521888018,0.264917433,-2.662665129,7.567777157,-2.831799507,0.709230244,3.648185968,5.760176659,7.472553253,4.327698231,2.830518484,8.25052166,5.268800735,2.066366434,1.025628686,2.534426689,4.004070759,4.936021805,5.245751381,-2.698945761,2.676321983,0.214456692,4.99805975,6.354766846,6.183393002,4.768113613,6.452009678,4.295395374,1.114913702,1.828058004,1.696575403,2.920139313,3.189104557,-5.627061367,6.51069212,-5.397201061,-3.598702192,1.79035449,4.482727051,7.464118004,4.634128094,-1.205046654,8.151063919,4.408910751,-0.328654647,0.71954459,0.812156856,5.131577492,4.962799549,1.488034129,-6.396107674,-1.183275938,-1.263415575,2.76030159,6.302056789,6.006178856,4.750427723,4.105953217,0.772640824,-2.106993198,2.449271202,-0.949763298,4.067574978,2.849218369
31,12,INTERMEDIATE,38,-6.291416168,0.842315078,-6.50473547,-4.566548347,1.297651052,0.560757101,2.547004223,3.023429632,-0.205071688,1.208220482,1.522184491,-0.387076557,1.734424114,1.301355362,3.306846142,2.794842482,1.947504282,-9.22777462,-1.132858515,-0.804704785,-0.134492546,1.821661115,1.881895542,3.081638575,1.457388282,-0.080440752,-1.742821813,2.073221445,0.405164808,2.906351328,2.468962908,-4.461335659,6.55821991,-5.508232117,-3.701196194,5.26253891,6.302141666,6.952401638,8.012645721,3.526843071,8.196667671,5.919077396,2.409095049,3.129657745,2.79937315,5.256504536,6.720288754,6.708167076,-6.721096516,3.050329685,0.570151925,4.772528172,5.981618404,7.744987011,7.541431427,6.385128498,4.08534193,-0.668536186,3.216564178,1.147307038,4.918642998,6.002096176,-10.74507809,-2.056065559,-11.51066399,-5.446395874,-3.429094076,0.370805264,1.488047719,4.894994736,-4.957724571,0.70705694,-1.293940902,-5.448895931,-0.623834431,2.258493423,2.927698851,2.429812431,-3.811500311,-12.56134796,-2.175110579,-3.878071785,-1.082192421,-0.000380961,2.706030607,3.779301882,-3.547964334,-1.572703242,-2.105071783,0.3393583,1.097844362,2.218208313,4.440799236
32,13,INTERMEDIATE,32,-0.808198631,5.380970478,-1.597669125,0.327786535,5.010482311,5.686789036,4.652634144,2.023775816,3.923138618,4.705199242,5.376634121,3.365487099,2.244217396,4.005516052,2.711221933,1.604040623,5.910336971,-1.475349665,3.452614784,0.924964845,5.280989647,5.428834915,5.190950871,1.39683342,5.881247044,4.72187233,1.971541524,2.7397964,3.28910923,2.906790972,4.025875092,-1.751379132,11.19901657,-1.443675995,0.532428443,6.915828228,9.111966133,10.22443867,6.04434967,5.005363941,11.21790695,8.490750313,3.642070532,2.715946913,4.416279793,6.615629196,6.743375778,8.336950302,-1.818467498,4.201344967,1.076290369,8.16947937,10.05316162,9.344272614,6.230566502,9.996006012,6.836999893,2.501687288,3.756709099,3.416703224,5.662943363,4.807107925,-2.358545542,9.007667542,-2.650004864,-1.083021998,6.422575474,8.114413261,8.31708622,6.191390038,5.260551453,8.85100174,7.485995293,4.111777782,1.613845944,4.721500874,5.7595644,6.776885033,8.213121414,-3.809506178,3.97608304,-0.15968509,7.318266392,7.973778248,8.651310921,5.920571327,9.018856049,6.255367756,1.277806759,2.616725922,2.753155231,4.427457809,6.449876785
33,11,INTERMEDIATE,35,-11.97809696,0.119532734,-10.66298008,-3.674307346,-0.558186531,1.590379953,0.526889741,-0.037791718,-3.429035902,0.162368804,0.134303287,-2.430112839,-2.369488716,0.711199939,1.073337317,0.221583471,-1.157082915,-13.16730595,-2.975928307,-3.704163313,1.071444392,0.219562843,1.081741214,-0.168604493,-0.149736792,-0.52274549,-1.552832007,-0.680788577,-0.038916864,0.082870044,0.276549101,-12.49321461,0.09082903,-10.81367683,-5.068263054,0.215539649,-0.426209599,2.172780275,2.328978062,-3.643727064,1.688635588,0.436832905,-1.596075296,-0.854775488,0.513663948,2.815556765,3.135450363,-1.085219502,-15.33277321,-4.788948059,-2.585301161,-1.173114419,1.046049953,0.825726926,2.334807396,-0.379600167,-1.714917779,-1.558945894,0.029801898,-0.254403979,1.046341777,0.950096786,-16.26836205,-3.344785929,-16.57741547,-5.240118504,-5.277995586,-2.020868063,-2.464406252,0.763803244,-5.673753738,-1.485769153,-4.782374382,-6.592896938,-4.836907864,1.154086828,-1.380340815,0.362096429,-3.993278265,-17.60146523,-5.848419189,-7.490252495,-2.586076975,-4.378848553,0.312913507,0.136835352,-3.883041859,-3.167716742,-1.678438663,-3.834700584,0.16409792,-2.712665319,1.316674471
34,16,INTERMEDIATE,37,-6.624717712,-0.396245599,-6.469151974,-4.278433323,-1.837114096,0.296411961,0.437986135,0.697002053,-2.010692835,0.432350963,-1.07813406,-3.196382523,-2.299276114,0.320293933,0.656649768,-0.018825097,-0.775192618,-6.754744053,-2.9002738,-3.432093143,-0.098157808,-0.400306791,1.494441509,0.307853341,-0.778557897,-1.178410649,-1.898136973,-1.146712899,-0.421969265,0.55065006,1.467068672,-5.429858208,1.467356682,-5.627215862,-3.20650959,-1.281534076,1.434811473,0.712371945,1.368496895,-0.906691253,2.274505138,-0.253241569,-2.42775631,-1.133572698,1.188842177,0.5123927,0.754902601,0.015370336,-5.9812994,-2.511394501,-2.148456097,0.805857837,-0.049552605,2.657706022,0.838673294,1.120920897,-1.023567438,-0.972854376,-0.447667301,0.409709007,0.342484981,1.802396774,-6.411762238,-1.531321764,-6.459702969,-4.461480618,-3.105775595,-0.71907413,-1.811724067,0.409033895,-3.057537317,-0.776123226,-3.086802483,-4.085741997,-2.079346418,0.033536267,-1.131971717,-0.515823126,-2.508378506,-6.914543629,-4.142602444,-3.11402607,-1.377580643,-2.53392148,0.339329481,-0.102910452,-2.310709715,-2.736680984,-2.252653599,-1.622649908,-1.055825233,-1.293037653,0.868465424
35,15,INTERMEDIATE,34,-3.904481649,4.642586231,-5.067722321,-2.621525526,0.753812373,4.682203293,3.454678774,2.944060802,-0.041680392,5.602768898,1.976732135,-0.334162742,-0.406606913,1.2809304,3.124958515,2.391155005,1.037616491,-5.601715088,-1.24897337,-1.848149419,3.237996578,2.886368752,5.033810616,2.120617151,3.061136961,0.49833566,-0.983539045,0.568163633,0.115977399,2.317332506,1.906685472,-1.270544529,10.56466389,-0.686292768,-2.948237181,6.63038969,8.422420502,9.722125053,7.245383263,2.715353727,11.9009428,8.142430305,4.089880466,3.393496513,0.619022906,5.336140633,6.967322826,5.708506107,-3.244817019,1.12012136,1.209632516,5.992571354,8.989933014,9.758804321,6.845557213,8.230398178,2.911301851,-1.797753692,4.337637901,-0.789725482,4.928017616,3.23265624,-0.262060583,7.620208263,-1.158485889,-0.375706136,4.654299736,8.265916824,7.282836437,5.957976818,3.550483227,8.787963867,6.056247711,2.855010986,1.5000664,1.661934495,3.989246845,5.140967369,5.192855835,-1.677950382,3.030234098,1.571528912,6.116455555,6.967013836,8.78687191,5.166229725,6.128139496,4.387355328,0.998370469,2.255360603,1.224979877,3.337996721,2.781364202
36,14,INTERMEDIATE,31,-11.92820263,-0.960891128,-13.05522633,-8.280605316,-1.449517012,0.12422099,2.004323006,3.129361153,-1.847072959,1.273815751,-1.548991084,-3.018311024,0.223759517,1.186961651,3.172945738,2.358005285,-0.084237136,-12.3787899,-3.271111727,-3.177483797,-0.553751409,-0.131650925,0.936954021,1.892308235,-1.277012348,-1.204753876,-2.157248259,1.405945063,0.397079289,2.508776903,2.461558819,-11.81884289,6.88440752,-14.07060814,-8.960952759,4.198467255,8.041202545,8.787079811,7.705778599,1.973380923,8.739876747,5.302730083,0.36007601,3.292838335,5.099515915,8.539247513,6.732439518,6.113774776,-13.95721817,-1.50930357,-4.695039749,5.613241196,7.616589546,9.301253319,6.821250916,6.754284859,2.813231468,-1.426116705,5.718615055,2.278892517,7.153641224,6.303293228,-11.84052277,0.320135981,-14.59724522,-7.928587914,-0.249737591,0.70220685,0.471914828,2.845476389,0.732288718,1.399554968,-0.774522841,-2.433250666,-1.274903893,1.3235116,2.887700319,0.446558297,3.558809757,-14.57010365,-2.04933691,-6.251670837,1.469007373,-0.413918316,1.168585181,1.344810724,2.081861019,1.363210559,-1.231292248,0.382870793,-0.026964232,1.458777189,2.007290125
37,15,INTERMEDIATE,32,-1.375176311,2.818826437,-0.95705086,1.07509923,2.675168276,3.522179604,3.374264717,1.892301083,3.719535589,2.775322914,3.379747391,1.923024893,1.206251144,3.211267948,2.073591948,1.78171432,1.942672014,-2.263000965,2.927648783,0.308078378,3.506875515,3.385673285,3.40527153,1.485941291,2.206596375,3.529128551,2.334690094,1.554484367,2.709123611,2.140090942,2.328595877,-4.115605831,4.758127213,-3.257198572,-1.222269297,2.241253376,4.471483231,5.096108913,3.897476912,-0.332509935,5.19050312,3.344097137,0.607624352,0.296701163,2.383867741,2.338474274,3.062434435,1.840228677,-4.1521101,0.896515727,-1.527844667,3.497581482,4.654080868,5.372954369,3.000017881,3.404750347,2.956069231,0.911154032,1.813110948,1.47905004,1.863029718,3.228071213,-3.408102512,6.119328022,-3.163040876,-0.943139017,1.576855898,5.005812168,5.322266102,4.507016182,0.40847379,6.786923409,2.858804941,0.676417053,1.325701714,1.769943833,3.272064209,3.754075527,1.92393887,-3.775149345,1.396854639,-0.144473314,3.591338873,4.136305809,6.240709305,3.737797022,4.156324387,3.231914759,0.733195901,2.222794771,1.277387738,2.657892466,3.078075886
38,15,INTERMEDIATE,38,-6.019196987,3.247357845,-7.187029839,-2.455954313,1.857139111,2.784406424,3.394126415,0.490463108,0.949513316,3.448132992,3.408638716,-0.034766901,1.86382544,0.302420527,2.395290852,1.203240514,2.752642393,-6.83159399,0.59423995,-0.671118617,2.238491774,3.681782961,2.846461535,1.159733295,3.234339952,2.044686079,0.261279136,2.445205927,0.544832349,3.234359026,-0.016275924,-2.775890827,6.104847908,-3.870021105,-1.277393699,3.697056532,4.953042507,6.787564754,2.187788725,2.995467663,6.891145706,5.362484932,1.489153862,2.992823601,1.254782319,3.893586159,3.780651569,4.998613358,-3.532979965,2.23396945,1.183111668,3.910778046,6.245106697,5.223969936,3.414204597,5.620473862,3.913330317,0.242556974,3.181107521,1.462723494,3.885609627,1.003229976,-1.291036963,6.676651478,-1.088596106,-1.268633604,6.850156307,6.168472767,6.704717636,1.262646794,5.505659103,6.326686859,7.084470272,5.391836166,4.627660275,2.902397871,2.75769043,1.709456682,7.069673061,-1.861192822,4.258574963,3.520311594,5.390906334,7.270846367,5.786682606,1.440447927,6.795862198,5.433846474,1.365177512,4.391109943,2.75933671,4.481775761,1.710481286
39,21,INTERMEDIATE,35,-3.578013182,8.204118729,-4.388255596,-1.124566555,3.307734966,8.684299469,8.757012367,5.456983089,3.268261194,9.236920357,5.476288319,1.241728306,1.519765377,3.966124773,6.52354908,4.847060204,5.313602448,-3.351686478,2.085412979,0.461084455,7.343595505,7.549001694,8.889370918,4.372373581,6.844370842,5.192033291,1.486990213,2.984416246,2.310054779,4.712973595,4.047789097,-3.588626623,12.90933037,-4.712540627,-2.409760952,6.656219482,11.76385212,13.63127613,8.017448425,4.612272739,13.82940865,9.140188217,3.491731644,2.236176729,5.304010868,10.19863796,8.641611099,8.429955482,-3.882870674,3.979930162,-0.068880849,8.885651588,11.87697697,11.98273468,7.543845177,11.11698723,8.082517624,1.937179565,4.936184883,3.769153118,8.32029438,6.004668713,-4.22860527,9.121880531,-5.435260296,-4.047848701,5.064311981,9.044407845,11.12612343,6.53198576,3.457513571,11.01895714,7.495447159,1.52232492,2.272432566,2.764374256,8.665799141,5.860644817,5.818396568,-3.830075026,0.460731715,-0.046642616,7.264744759,9.820870399,9.537557602,5.091733932,7.356458664,4.373916626,-0.565827549,4.87002182,1.200417638,7.936777115,4.50744915
40,14,INTERMEDIATE,36,-2.830677986,3.504487276,-8.418305397,-2.126250982,2.199263334,3.728286982,4.073131084,4.706469059,0.734367728,4.215137005,3.056171894,0.248947099,3.574799776,2.99727726,3.186266422,4.233352184,2.487836123,-9.27405262,-0.42494455,0.749640584,3.456157684,3.479134798,4.206712723,4.259366989,2.916085243,1.876225114,0.522082388,4.757500172,1.932578564,2.968853474,2.58106637,-8.782126427,5.36384201,-14.2433157,-5.596523762,2.025613308,4.852219582,6.590263844,5.23283577,-1.349859238,6.296208858,4.355212212,-1.746608257,2.404342413,4.455848217,4.596714497,5.68856144,2.276048899,-15.35053349,-4.291455269,-2.525150061,3.576538324,5.654398441,6.169331551,4.933852196,4.895530701,0.031641111,-0.915420711,5.221675396,1.785344601,4.294806004,3.545070648,-3.60129571,5.652275085,-8.212568283,-4.124396801,3.172711134,5.032971382,6.498565197,6.164452553,0.519047081,6.175199986,4.584163189,0.946398377,3.031349421,1.731645584,4.987812042,6.200974941,2.772267342,-10.01350784,-1.718296885,0.223210096,3.910092354,5.952271461,5.903047085,5.664412975,4.37044096,1.185110331,-1.68729651,3.840405941,0.028213093,4.407510757,2.330245972
41,13,INTERMEDIATE,37,-1.214944363,2.065903425,-1.884284258,-0.011610241,2.016864061,3.22499609,2.631416082,-1.169758081,1.285327673,2.41499877,1.764718771,0.620496273,1.227349162,1.72034955,2.335674763,0.030054249,1.751700163,-1.336554289,0.67506516,0.177536532,2.718448639,2.516936064,2.705731153,-0.70684284,1.64070487,2.135903358,1.199860215,1.620976329,1.564647794,2.370481491,1.412468672,-4.85756731,4.064660549,-4.950518131,-5.172584057,0.083178863,4.726590633,6.051953316,3.81106329,-2.720884085,6.191987514,2.213694096,-2.345472813,-1.777810335,2.105000496,5.069036961,4.644168854,-1.47824502,-5.375227451,-3.88133049,-2.61334157,2.334686995,4.306798458,6.037735939,4.078231812,0.923103929,-1.757415891,-3.085893393,-0.398414552,-0.755016804,1.614530444,3.976355314,-1.74850142,4.301902771,-2.642351866,-0.203979284,0.554332376,6.268819332,4.186859131,2.916723967,0.430301696,5.423919678,2.010256767,-0.467260212,-0.687867105,4.299267292,3.103999853,3.487436056,1.055054665,-1.897178769,0.77371031,-2.519003868,5.109582901,3.18857789,6.786374569,2.208231926,2.991352081,2.220701218,1.457773924,-0.617333472,2.799740791,0.426226288,4.787468433
42,12,INTERMEDIATE,31,-4.755131245,6.268355846,-6.46884203,-2.023120165,3.165435791,5.401045799,-4.187448978,3.114416838,1.720168233,5.215614796,4.883584499,-0.018219104,0.669188619,2.665757895,2.522867203,0.877209246,4.613067627,-7.199494839,1.248728633,-1.269831538,5.010279655,5.340310097,4.837554455,1.85495162,5.495893955,3.320120335,1.688768864,2.026627541,3.375007868,2.773630857,3.796099663,4.702286243,10.30422211,-12.02412987,-8.953123093,4.0930233,8.726882935,6.243817806,7.918291569,1.129915953,10.68647766,7.086751461,-0.791450977,-0.757477105,8.445755959,3.541545391,4.964656353,6.127157688,-25.14028358,1.176347017,2.955215931,7.175123215,7.507378101,9.321249008,6.168533325,10.18028164,4.844675541,0.261266202,1.695986509,5.637629032,3.043616295,7.41258049,-9.491228104,4.788823128,-10.73521614,-5.471939087,2.097568035,3.691897869,1.341203332,5.231893063,-0.83420074,4.853508949,4.70774889,-1.162129045,-1.289623737,2.300820589,4.424732208,2.792959929,2.109327316,-10.29204559,-1.274419188,-5.006609917,2.889339209,5.17743063,5.060432434,3.903479576,4.073747635,1.077594399,-2.122701883,1.3746351,0.356621951,3.478684187,5.118843079
43,12,INTERMEDIATE,35,-3.324565411,7.503931522,-6.200809479,-0.513171852,3.786506891,6.879639149,5.002696037,3.997162342,5.173058987,6.8671422,5.499351025,2.524246931,2.432173252,4.198613167,2.191041946,2.15942049,6.557003975,-4.484183788,3.348147631,-1.009236813,6.071453571,6.515523434,7.154169083,2.565645218,6.922020912,4.814117432,1.49834764,3.69893527,3.023367167,3.731015205,5.334024429,-4.774481773,5.955217838,-7.929124832,0.085596941,3.464373827,7.432986736,4.391859055,4.303259373,3.397558689,5.571070194,4.366747379,1.203899622,1.081964254,4.878230095,2.446243763,2.291636944,5.532810211,-5.669751167,2.14908886,-1.768516898,6.064451694,5.514636517,8.322505951,2.969684601,5.76627636,4.937899113,2.41633606,1.687049031,3.552919388,2.338051081,6.010330677,-1.352806211,6.522546291,-3.154094458,-1.079000831,4.594565868,6.826998711,5.900163174,4.678398609,3.947167158,6.312528133,6.127953053,3.265064955,1.86877346,3.025036335,2.500773191,2.952315807,5.614331722,-2.918373108,2.268112659,0.459560663,5.120705605,6.513598919,7.72762537,3.13018322,6.04064703,4.196481705,0.638556242,1.968087912,1.373697877,2.435696363,4.835999966
44,17,INTERMEDIATE,35,-1.450636983,0.451913953,-1.502526879,-0.232478201,0.894403279,0.767668903,1.048886657,-0.037956856,0.203443199,0.387506545,1.242375851,0.027597804,1.410812378,1.446333766,1.027704597,0.027798586,0.500903487,-1.893384099,0.344906241,1.270315647,1.139278769,1.224703312,1.096472502,-0.272099644,0.635508478,0.963047862,1.153446794,1.062382579,1.396502733,1.178620934,0.686862409,-0.977486551,7.626863956,-1.422082901,-0.272061408,2.483400583,7.138831615,7.407578945,3.588881969,1.827632904,8.524404526,6.003204823,1.081959605,2.521012545,3.72490406,4.52324152,4.284072876,3.306120634,-0.943238616,1.22038579,1.104789257,5.261804581,7.325017929,7.136977196,4.08671999,5.97002697,2.947887421,2.127446413,3.458671093,3.431927681,4.254545212,3.785218477,2.360824823,7.94707489,0.972927153,2.587809801,5.151076317,6.937493324,6.886669636,4.377500534,4.643122196,8.490029335,5.880905151,4.255118847,3.09904027,4.587769032,3.722654343,4.060084343,5.586426258,2.054324865,4.307567596,2.733754635,5.920533657,6.702516079,7.065624714,4.113232136,6.987084866,4.938651085,4.410111904,3.549432039,5.114121437,4.333888531,3.951355696
45,12,INTERMEDIATE,39,-6.717674732,3.058483124,-8.30684948,-3.979352236,1.022575736,2.866660595,4.792084694,3.76774168,-1.209678531,4.154576302,3.055083275,-1.116531491,1.107119918,1.576726079,5.629760265,5.070809841,1.081574678,-9.793402672,-2.09411478,-2.004629612,1.696100116,4.061398029,3.29776144,4.045446873,2.489039898,-0.286500961,-1.524359107,2.481494904,-0.056376915,3.95710516,2.502137423,-12.89442444,3.202594757,-14.16751766,-7.151439667,-0.192944497,2.921149492,7.129532337,6.439201355,-5.361497879,5.693232059,3.198522806,-4.604358196,-0.410788924,2.848613262,7.31528759,8.240792274,-1.857266545,-15.23631763,-6.041770458,-4.353202343,0.446821302,5.538053513,4.596745014,6.821434498,1.166266799,-3.002671957,-3.043915749,2.374381542,0.510523915,4.946586609,4.431315422,-11.01992226,0.572661877,-11.31587219,-4.736783504,0.688837767,1.492072344,5.296553612,3.143861532,-5.082643509,3.531732321,2.8203578,-2.892930031,0.827208161,0.765299082,6.610956669,6.02371645,-2.618575096,-13.06204796,-5.614015579,-1.90485847,-0.299340844,4.033047199,2.60912466,4.181233406,-0.79872483,-3.302406549,-1.95499897,2.291348934,-0.138874382,3.783365488,1.305264831
46,15,INTERMEDIATE,38,-3.903723001,-1.059266448,-5.284262657,-3.046034098,-1.205779791,1.236307383,-1.360351086,-2.632725,0.705664814,-1.603600979,-1.049479127,-1.913768053,-2.522535086,2.088929892,-1.309915304,-3.532371283,1.491681576,-4.486362457,0.861132443,-3.954116106,1.427484751,-1.14250195,-0.049377836,-3.292820454,0.160476014,0.901785851,0.128406465,-1.194317579,1.637597442,-0.981737256,1.217485666,-4.756187916,5.424162865,-4.657661438,-3.546506882,3.722756863,5.578036785,5.508864403,0.726831913,4.500947952,4.939284325,5.124172211,2.639989614,2.13297987,1.55927217,3.396924019,1.065417171,7.681942463,-5.348631382,2.564350128,-0.464728475,5.35612011,5.619835854,4.349436283,0.421259314,6.322082996,4.698637486,-1.040246606,3.541142225,1.745691061,4.128177643,5.075982571,-4.638840675,-0.843051374,-4.770689011,-4.931455135,0.126085281,0.333539665,2.518569708,-0.004367421,-0.23312521,-0.096235886,0.960266769,-0.258800834,0.544450045,1.192528248,2.526606798,-0.486698985,1.639041305,-6.142612457,-2.063980818,-1.295911074,-0.066808805,2.09267354,1.271866202,-0.544636011,-0.416469902,-0.727579415,-2.85302639,1.945141077,-0.284412682,2.692741394,2.112822771
47,15,INTERMEDIATE,34,-3.437800169,0.377129972,-6.066721439,-4.824418545,0.395572394,0.639411747,0.293909162,-0.130516455,-0.312885731,-0.033693328,0.653403223,-0.430492967,0.26422137,0.368215859,-1.13513422,-0.37823683,0.40721494,-5.88700819,-0.376696825,-0.601871133,0.325426847,0.748217404,0.537151515,-0.106348492,0.484751433,0.235002175,-1.884074092,0.606560826,-0.129050553,0.059797704,0.177948654,-4.986392021,4.145105839,-5.600224495,-6.009629726,2.078677177,3.142309904,4.103347778,3.088094234,1.76657784,5.158979416,3.378282785,0.586627245,1.531803727,1.175350547,3.011686802,3.032544851,3.340310097,-5.844560623,-0.723551214,-0.080693834,2.292305231,3.596026421,3.938793182,3.087449312,3.434238434,0.86715436,-2.461076498,1.741634846,-0.098349474,2.534462929,1.719470739,-8.255619049,1.1394701,-8.517398834,-7.337808132,-1.794608831,0.240835831,0.96787256,0.522674739,-2.978241682,1.496495962,0.435012996,-2.689977884,-1.471254945,-1.051931024,0.361813515,0.616969824,-0.476073861,-8.291377068,-2.680904627,-3.152793646,-0.612775326,0.863772273,0.54167223,0.716611028,0.395389706,-2.034208775,-3.575354576,-1.064676762,-1.436386704,-0.452946812,0.021485416
48,13,INTERMEDIATE,35,-3.390457153,-1.295549631,-2.774013519,0.184494525,-0.554654539,1.813827157,0.220668599,1.604956031,0.708632052,-1.856869578,0.188006163,-1.272572517,-0.106564596,3.562198162,1.532201052,0.129264519,1.852281928,-4.915593147,1.230643749,-1.055101275,1.796581745,-0.067811139,2.241547823,-0.019306216,0.517851233,2.041582584,1.421884298,0.955493033,2.729687691,1.5951612,4.18397665,-4.107201099,9.744416237,-4.33761549,1.161103606,5.353898048,11.26755333,9.417434692,12.4799509,3.215003729,11.35955143,6.997281551,2.86422658,2.629189491,8.109321594,4.637206078,10.14891434,6.121735573,-4.5691576,4.39277792,0.887004077,9.725440979,8.217673302,12.64505672,10.82844448,8.623646736,8.023258209,3.967294455,2.773610592,5.757386208,3.27589798,10.66626072,-3.322517395,8.797013283,-4.073022842,1.295124173,4.626912117,10.36418247,9.317280769,10.34320164,3.766300201,9.777600288,7.088112354,2.651488066,2.597825766,8.219703674,6.329350948,8.798716545,5.820374966,-4.058263779,4.543466568,0.915872991,8.807937622,8.57476902,11.4900713,8.95021534,7.870729446,7.709811211,4.065302372,3.199260712,5.940955639,4.087858677,9.964337349
49,14,INTERMEDIATE,31,-1.903522968,4.3656497,-2.623839617,-0.394538194,2.489538431,5.084528923,4.851869106,5.097779274,1.671895623,5.11340189,3.492775917,1.181139946,0.684809506,2.868295193,3.896966934,5.333547592,2.61435771,-2.667360544,1.72888875,-0.089169003,3.918808699,4.106262684,5.375193596,5.067852497,3.591141939,2.892231941,0.769817412,1.292806745,1.585426569,1.994848251,4.400150776,-5.378912926,5.435741425,-6.153113365,-2.793560028,2.0692451,5.025783539,6.077586651,7.919873714,1.284249187,6.970134258,3.394519567,0.964569211,-0.407329768,2.221836805,3.450325012,6.778186321,3.154493809,-6.706603527,-0.036174711,-1.671698689,3.732998371,4.757187366,6.781274796,7.096772194,4.009618759,1.91988647,-0.944820762,0.467034757,0.503370941,1.236872196,4.921408653,-2.564609528,5.733803749,-3.161660433,-1.618813753,3.551815033,3.97117877,6.554778576,6.300383568,2.211106062,6.910369396,4.743141651,2.032987833,1.31283474,0.93010956,4.256206036,6.378036499,3.360444784,-4.319218159,0.080326267,0.553795516,2.707672596,5.797283649,5.68880415,6.184135437,4.648132324,1.755632639,-0.738686144,1.217565298,-0.124980167,2.424999952,3.050459146
50,10,INTERMEDIATE,35,0.22016044,-0.347373933,-1.399043798,1.001314282,0.765479386,0.70015353,0.199817091,-2.338130236,0.9588691,-0.149149865,0.634453356,1.529972792,1.905256391,1.104542136,0.40345335,-1.488146424,0.228530049,-0.705481589,1.216240406,0.109956034,0.185107723,0.294522464,0.43768695,-1.651437998,-0.414354414,0.504875422,1.561008215,1.331436396,1.629227638,1.10887754,-0.345585197,0.716909587,3.656560898,0.34864825,1.053012848,4.185452938,3.438316584,3.96559453,0.137751579,2.94888258,3.398250818,3.950436592,3.464856148,2.98132062,1.517124295,2.24879694,1.110850453,3.180431366,-0.287096918,2.833201408,2.896138191,3.416549206,3.976251125,3.31191802,0.044602182,3.001459837,3.055630684,2.081691027,3.364674568,2.068396568,3.122035027,0.803439379,-3.23337388,0.567334533,-4.542715073,-0.517072618,-0.899334073,0.909169316,2.044900656,-0.110423468,-2.041404009,1.347439408,-0.07083597,-1.531146765,-0.149362862,0.549381971,1.4872967,1.101952076,-1.848117948,-3.019542217,-0.906428277,-1.301942229,-0.164334983,0.777383685,1.618258119,-0.162918866,-0.868439436,-0.819954157,0.306903124,0.69202286,0.10360679,1.220144749,0.344759524
51,13,LOW,24,-0.978847027,-1.800430655,-1.635311246,-2.51020813,-0.328855217,0.534119248,0.969037592,3.058701754,0.316659987,-0.52483952,0.006372262,-0.353894204,-0.153628349,2.186496258,1.314147234,1.514706135,0.67921108,-1.828426838,-0.086509854,-0.319854915,0.998096287,0.110995367,1.401302934,2.713031292,-1.085118771,0.679139912,-0.193250582,-0.839204371,0.632434905,0.038452186,2.679135323,-0.753605306,-2.588016033,0.16509226,-3.129828691,0.431328535,-0.304961383,-0.642728686,1.357570052,-0.169058099,-1.228570461,-0.321268201,1.291474223,0.736983895,-0.384329975,0.875462949,0.292284399,-0.7550143,-2.065914869,-1.492621064,2.232013702,-0.843875945,-0.710587859,0.019347327,0.834245861,-2.102277756,-1.561858416,0.312889129,0.316929519,-1.41734767,-0.086798273,1.102118611,-1.413546562,3.367062569,-1.470517397,-1.622316957,3.025577545,4.870564461,4.011924267,6.351727009,2.845868349,4.101875305,2.982538939,2.133224487,0.887511432,1.993382812,3.538624287,4.669249535,3.429499626,-1.245413184,1.286454797,0.114650339,4.24706316,3.308098793,5.572122574,5.348186493,3.573201895,2.714289665,0.606422067,0.74486655,1.266272664,1.883798361,4.490707874
52,13,LOW,27,-1.419977903,8.083323479,-2.825119257,-3.33331728,6.771149635,5.943882942,9.927389145,6.465502262,4.018688202,8.90875721,7.480504036,5.435520649,5.172746658,2.599274635,5.80206871,5.354152679,6.154459953,-4.680717468,1.112165213,2.348985434,5.374351978,9.044047356,7.343898296,3.97206378,6.890203476,2.857558727,-0.949309349,5.056169033,0.227269009,5.989573956,5.388959408,-5.490283489,8.348621368,-5.780448914,-2.516714811,3.360104799,8.823209763,9.765413284,8.409561157,1.48776567,10.44292831,5.999544144,1.788706183,3.820373297,3.340779066,6.638996601,6.442836285,3.366828203,-6.431842804,-0.544495046,2.538259268,5.780734539,8.533799171,10.93211937,5.532175064,5.108346462,1.803734064,0.584436953,3.615339041,1.732171297,5.018401146,7.007598877,-6.54059124,15.3200531,-7.749614716,-4.99268961,9.507236481,12.08959579,20.33981514,13.55223274,5.729669571,17.37281036,12.77206039,6.111801147,6.701075554,3.262785435,12.15855026,13.83274555,8.83780098,-10.41185856,1.200786352,4.414904594,8.463928223,17.51284409,15.05244637,9.63378334,11.38016701,4.543395519,-0.654871404,7.611653328,1.280122519,8.996416092,7.048174381
53,15,LOW,25,-4.236651421,0.125495553,-5.698436737,-2.088900089,3.589323044,1.311780095,-0.855025947,-1.218204379,2.228379965,-0.176787615,1.480857968,2.159079075,1.499783874,0.765850723,-1.320418596,-1.887593746,2.517598629,-5.79053545,1.778565764,3.445886135,1.653800726,0.5635975,1.026476383,-1.312933087,1.115721583,2.720371962,0.344185829,1.333922982,0.889350951,0.298610687,-0.85006392,-4.964969158,5.032540321,-4.587152004,-4.290763378,5.073338509,3.218195677,3.463121414,0.297385842,1.999293327,4.750793457,4.364327431,3.012224197,3.494847536,0.892164052,0.8527565,0.79140383,3.35649085,-6.862057686,0.022980092,3.458798647,3.388008833,4.122772694,3.534441948,0.680534124,4.303740025,2.654531479,-0.70248121,3.171220541,0.337920576,1.749219656,-0.507128954,-7.804702282,1.027378678,-9.770993233,-3.280553579,2.626097918,0.829439759,-0.119055942,-0.855472744,1.050039768,0.636350989,1.38182056,2.143707037,2.784364462,0.448133022,-1.284264326,-1.265908718,1.783216238,-9.438741684,-0.586776435,1.208819866,1.31188643,0.800697803,1.428558588,-0.874001682,1.335470438,1.146201611,-0.463329524,2.017117023,0.686577618,-0.458143383,-0.882880807
54,20,LOW,19,-1.802996397,-3.306593895,-3.529076338,-1.437381268,0.407887667,0.071684666,-2.147331238,-2.419644594,1.992423654,-3.463621855,-0.723142803,-0.246354178,-1.663803935,1.047168374,-1.775426269,-3.879641771,-0.272127956,-2.098007441,0.691388726,-1.390925288,0.264043421,-1.511385798,-0.161152795,-3.482954264,-2.592708111,0.694665074,-0.348720372,-1.764024615,0.633490741,-0.599169493,1.176962256,-2.093505144,-0.628742814,-3.537124872,-2.496254444,1.704532146,1.666476846,0.580943584,-0.416862994,1.321527481,-0.235172644,1.058790088,-0.049216844,0.156804234,0.54500109,-2.034418821,-2.092757225,0.370998204,-1.869501829,-0.653602898,-0.814014614,0.81233871,1.171761751,1.872039437,-1.727645159,-0.526669323,-0.101764068,-1.473228216,-0.185087979,-0.106881887,-1.036872983,0.580406249,-6.434578419,4.223899364,-6.667397499,-5.595833302,3.209810734,5.20619154,5.191142082,1.66332233,0.387210757,4.593680859,3.580339432,-0.212278858,-0.683279335,-0.353680998,0.386791229,0.225771606,2.226305723,-6.35910511,-2.695636034,-2.581916332,3.479563236,5.290242195,5.76126194,0.248211265,3.202090025,0.350449532,-2.111008644,1.194967747,0.024848057,-0.02425418,1.262352586
55,8,LOW,15,-0.035840441,-2.295982838,1.079238415,-1.594771862,-0.578804731,-1.315860868,-1.438950062,-1.866507649,-0.560065985,-2.49091959,-1.365068555,-0.078816853,-0.098738901,-0.670122385,-0.457598746,-1.23234117,-1.342433572,-0.858137488,-1.775610566,0.625302851,-1.544253469,-1.201367497,-1.142221928,-1.341142774,-1.943472743,-2.08762908,-0.999585152,-0.415732384,-0.922038853,0.112804294,-0.992652953,-0.947762549,-1.086452961,-1.721244454,-0.50736016,-1.276868582,0.382537216,-0.550656617,-1.065684199,-0.858047903,-0.595716119,-0.902837038,-1.175348639,-1.502988577,0.897158027,-0.690205693,-0.565062344,-1.542755842,-1.017491817,0.2483318,-1.253763199,0.151320741,-0.530083477,0.101223655,-0.848754704,-1.344620585,0.186461806,-0.022289263,-1.154550076,0.77889955,-0.383747011,0.603867173,-1.272616386,-0.653536022,-1.914165378,0.087882385,-1.605019569,0.544171035,-0.745130897,0.52170682,-0.831273794,-0.221783474,-1.422957063,-1.811509132,-1.733534098,0.766339779,-0.760180473,0.140199751,-0.803112566,-0.901568651,-0.180730551,-1.456406951,0.103270605,-1.197308064,0.573702037,0.337669581,-0.712513626,0.064653993,0.797201335,-1.344228983,0.74621135,-1.070299268,0.730918109
56,16,LOW,12,-1.872951508,-1.837367296,-2.111346245,-2.52512598,-1.704165816,-1.013622999,-1.211418152,0.037177175,-2.114753723,-1.340748549,-1.509565592,-2.134863853,-1.15435636,-0.711443961,0.070214257,0.078198574,-2.041765213,-2.037114859,-1.760790467,-2.451913118,-1.25195086,-1.430851698,-0.138243169,-0.232564136,-1.843414664,-2.037786245,-0.804380476,-1.717284441,-1.071828127,-0.791262329,0.050138995,-3.190981627,0.570986688,-4.064387798,-0.86582756,-0.574942648,0.35194394,-0.17843987,0.848489046,-1.595232725,0.58178407,-1.044652104,-1.280929923,-1.597024918,-0.190162584,0.242225394,0.418352604,0.856630683,-2.71081996,-1.256687164,-1.914033294,0.04411618,-0.56709528,0.823489308,0.604973853,0.818183064,-0.066707984,-0.70390141,-1.603092313,-0.117846087,-1.136568069,0.485203177,-0.737094164,-3.504916668,-1.028896689,-2.0126369,-1.549932837,-3.060191154,-3.039808512,-3.323373318,-1.563794374,-4.092439651,-1.549938202,-1.382749557,-0.410648048,-1.727341652,-1.351970792,-3.132167578,-2.411588907,-0.792479038,-1.704236388,0.259870678,-2.525831461,-1.937294722,-3.19728899,-3.396927357,-3.040252447,-2.069067001,-1.671759486,-0.004364724,-1.652301669,-0.394420564,-2.611682415
57,13,LOW,24,-1.990919709,0.877675235,-3.267845392,-3.968625784,0.23433505,0.142378658,0.962119401,0.305279106,-0.684014797,1.115901589,0.903031528,0.008942484,-0.5054757,-0.07901185,-0.096029982,0.514377236,-0.809618592,-3.082203865,-1.700507879,-0.578899324,-0.026871145,1.196046114,1.002521038,0.347579688,0.294939607,-1.130993009,-2.442912102,-0.01697362,-1.207486749,0.385858059,0.381361902,1.537081599,3.382369518,-0.571201444,-1.695340872,2.555296183,3.595490694,2.821128607,2.368955135,1.460021019,4.378928661,2.537523985,2.536420584,1.919882774,2.592373371,1.048296213,1.805750966,1.599600315,-0.534980416,0.767632127,1.866597533,2.772897005,2.958744764,3.733301401,1.960419536,2.137051821,1.985536098,0.019909833,2.028924227,1.198707104,1.287831426,2.576738358,-3.60455966,0.583902478,-3.866096497,-3.810950756,-0.438402951,-0.175123289,0.568128228,0.37844339,-1.840587974,1.107710838,0.68603617,-1.186363459,-0.631840944,-1.148514867,-0.30710721,0.114973471,-1.270416975,-5.468854904,-2.733979225,-1.832901955,-0.615898609,0.661987662,0.29293716,0.410119891,-0.237354666,-1.42388165,-2.672678947,-0.389498115,-1.946391821,-0.256004781,-0.452543855
58,16,LOW,17,-0.250846118,5.090328217,-2.41554451,-0.045986328,3.36815238,5.416375637,6.380497456,3.611503839,3.260573626,5.862694263,5.047133923,1.415410995,0.796781957,2.763496876,5.212351322,3.187327385,4.069403648,-0.741802156,3.010231256,-1.198630452,4.908778667,6.16787529,5.802388191,2.901805878,4.391510963,3.896420956,1.953656912,3.014453411,2.152556896,5.064114094,2.464193344,-2.485947847,5.643733978,-3.466752052,-0.884072483,2.487700224,5.219541073,6.01695919,3.09340477,1.30375123,5.954945087,3.788113832,0.130957752,1.054558158,2.811130047,5.97454834,4.387473106,2.862710714,-2.504591942,1.905242324,-0.954062998,5.175145626,5.14125061,5.269547462,3.288763285,4.424817562,4.553350449,1.413756371,2.626712322,1.742165804,4.753799915,2.258347034,-1.821919203,6.207591534,-3.591881752,-0.424080819,2.206668854,6.543980122,6.521216869,5.032876015,2.836003065,6.694107056,4.171381474,0.46621573,0.469577044,3.472642899,6.059251785,4.364629269,4.237929344,-2.263709068,3.133015156,-2.318091393,5.93992281,5.522289276,7.035719395,4.183924198,5.329154491,5.572033882,0.962867081,2.374933243,1.856900811,4.819729328,4.743523598
59,14,LOW,23,-2.097345829,1.698172212,-1.80860877,-2.45760107,0.547168314,3.277650595,2.165587664,3.496616364,0.409264535,3.14693594,1.141342759,-0.527457833,1.253968954,1.809322119,0.412010968,1.848248124,0.749510586,-2.940412283,-0.792567253,1.303489923,1.748324633,1.691136718,4.769552231,2.830054522,1.48609221,0.731574416,-0.538899839,0.993140578,0.381098002,0.508741677,2.729556084,-0.60296756,11.26571751,0.259197474,-0.526942611,7.323503494,11.35731888,11.83786392,8.026740074,6.114822388,11.7268734,9.075400352,5.766077518,5.001946926,4.659170151,5.571217537,6.252912521,7.768980026,-1.337848783,4.625974178,4.212151527,9.987465858,11.24592686,12.2028656,7.292302132,9.607135773,7.985158443,1.882504106,5.478871822,3.802647114,5.680746078,5.386368752,-3.1149261,6.796256542,-3.146956444,-2.818103075,3.113735199,6.368223667,6.485026836,3.389821053,1.820768595,6.907022476,4.770945549,1.595568299,0.932677388,1.120768547,1.971594453,2.696746826,4.251844406,-4.157605171,0.288603634,0.369730026,4.994992256,6.297112942,6.226447105,3.349908352,5.675962448,2.823437929,-0.622525036,1.809400916,0.311954588,2.155464888,2.076289892
60,15,LOW,24,0.740845919,4.973661423,0.872250438,0.444320202,2.760792255,5.997272968,4.812434673,4.780194283,3.189664364,5.795332909,3.989963531,1.374703288,1.77984941,3.887004614,2.246257782,3.561110258,4.246331692,-0.206117287,4.172360897,-0.002104316,5.473903656,4.967325687,6.704848766,3.923929453,4.893182755,4.845798492,1.898186207,1.300097823,2.90988636,2.217978954,4.200735092,-2.677526712,6.491312504,-2.21001029,-1.652810335,3.942182541,5.950063705,5.776606083,7.133121967,1.913400412,7.079763889,5.705438614,1.990127683,0.900720119,3.922279119,2.836414099,4.476844788,4.204284668,-2.19360137,1.91143477,-0.206501067,4.665682316,6.286058903,7.420054436,5.414266109,6.056612015,3.193790913,0.439290047,1.600507021,1.862124205,2.550082922,5.28995657,-0.638735414,6.210124016,-0.014171069,0.825024605,3.654355049,6.236513615,7.661073685,7.889309883,2.032914877,7.675553799,4.84435606,2.132341385,3.003860712,4.223860741,5.914682388,7.27174902,3.153444529,-2.1939466,1.846414328,1.294907093,4.488434315,6.688555241,7.440092087,7.484018326,4.403116226,3.436433077,1.42546463,3.6176579,2.447764874,4.72219944,5.768801212
61,18,LOW,22,-1.873558402,4.427111149,-2.093396664,-0.664024889,2.734340668,4.254209518,4.443883419,1.759274006,2.320254803,3.85864687,3.433315277,1.952767015,1.740201712,2.709690571,2.001687288,2.349511147,3.006342888,-2.127328873,2.255386353,1.631501198,3.621156693,3.790278912,4.240568638,1.345522404,3.424610615,2.838769674,1.491505384,2.595827341,3.190753937,1.830546021,1.922267079,-2.360943794,10.934659,-1.997762561,-0.617333114,5.393605232,8.831140518,9.838040352,6.597902298,4.887404442,10.01243687,8.33323288,3.502738237,2.2962327,5.344042301,6.766601563,8.465600014,6.679004669,-2.633237839,3.143376112,0.848432183,7.249387741,8.832701683,9.52628231,7.14712286,9.124148369,5.013566017,1.547334313,3.907413721,3.481151581,5.427762032,5.861767292,-1.989436507,5.291259766,-1.621423006,-0.86374253,3.592079163,3.909923792,4.929955482,2.517742872,1.908961654,5.511565208,4.459142685,2.731432438,2.313298702,2.135670185,3.372069359,4.196452141,3.51357317,-2.275583029,1.834332108,2.063817263,3.061942339,4.488821507,4.233386517,3.189565897,4.226932526,2.093221903,0.794836938,2.680869102,2.144030809,2.664369583,1.834854722
62,11,LOW,24,-12.56403923,-2.970163822,-16.32303238,-7.213827133,-2.246309042,-0.303494245,-0.752002954,3.361248255,-3.817878246,-2.16080904,-1.59128058,-4.62817812,-0.529139638,1.334350109,0.96043247,1.074557066,-1.436610222,-13.37346935,-3.892531633,-4.387892246,-0.303805083,-1.343434811,-0.704528093,1.403561831,-2.201453686,-0.487318844,-1.052700877,1.228241205,0.498974681,1.089169741,1.792577028,-12.63052559,2.949708223,-16.32045174,-4.348304749,1.200886965,4.937102318,4.070316792,5.091361046,-0.586317778,3.89310813,2.408335924,-1.119638681,1.910949349,4.217602253,5.063995361,4.735426426,1.496542096,-13.16087437,-0.895685911,-2.154476643,4.264564991,3.195735216,5.007944107,3.672860384,1.948171616,3.367578745,1.245371461,3.5642097,3.148793221,5.056592941,4.237065315,-14.10277843,-4.899455547,-16.21845436,-6.351980209,-3.224907398,-2.013911963,-3.067548275,0.041634619,-3.842961788,-4.967257977,-2.564443111,-4.661818027,-1.153771043,-0.233547598,-0.686246693,-1.794739723,-1.851238132,-15.28127384,-3.842326641,-4.001401424,-1.57005012,-3.044893742,-2.371737003,-1.497005463,-3.086930513,-1.232147455,-1.431082487,-0.58724463,-0.380543202,-0.648327827,-0.361487448
63,14,LOW,24,0.190700337,4.043549061,0.86601156,-0.826700747,1.927199244,2.938668728,4.051229954,1.861369967,-0.195347726,4.53826046,2.15811491,-0.174650311,0.649677634,2.041408539,2.187379122,2.742172003,0.126930535,-0.244888917,-1.116514802,0.540829778,2.061332464,3.695020676,3.038490295,1.944287419,1.594499826,1.254930735,0.341371328,0.703543603,0.568122983,1.604123354,2.244193554,3.124549389,5.653344154,1.259630442,2.565134525,3.319469213,6.021731377,3.831941366,3.734121323,3.555097342,5.542861938,3.514567137,2.057063341,2.169809818,5.025261879,1.700928688,3.239768505,3.665344715,2.673601866,3.784675598,1.927868843,5.473380089,4.26035738,5.451956749,2.648688555,4.241462231,4.689528465,3.552605867,1.472385049,3.844489098,1.852674365,4.555721283,3.612010479,4.17872715,4.802915096,1.793674469,3.492191792,3.321108103,2.913946629,0.240507245,3.122100115,3.620220423,2.958735704,3.700414658,1.421226859,1.855660439,1.000839591,0.546051562,2.737920284,5.07360363,3.785435915,3.151922464,3.448750734,3.371994257,2.997703314,0.258077323,2.825488329,4.20994091,2.52574563,1.022339225,2.237079382,0.834738851,1.538515687
64,15,LOW,21,-4.14979887,1.240230322,-4.686199188,-1.574982047,0.630714417,1.485183716,1.71423912,0.168536633,0.568231404,1.465010643,1.104426384,0.284778923,-0.391474396,1.19531548,0.823679626,0.090196215,1.056741238,-4.129772663,0.291809589,-2.427623272,1.385065794,1.826145172,1.515110016,0.246626943,1.423677087,0.861019075,-0.425777644,0.452060133,-0.061046299,1.104136825,0.595870793,-1.51516211,2.479356527,-1.651479721,-1.295425296,2.374349117,2.458136797,3.295102596,1.50208962,1.492291331,2.510712862,3.152775526,2.301053286,1.17865777,1.379538178,2.382977009,1.34541285,2.371756077,-1.542109132,1.218102098,-0.603487134,2.102319956,2.94557023,2.347636461,0.964547575,2.455401897,1.826171994,-0.772024393,1.952015877,0.359442055,2.458824635,1.23924458,-6.000631332,-1.118480206,-6.830595016,-2.16787219,-3.033452272,-0.375020236,-0.398401976,-0.292445898,-3.524279356,-1.161566615,-2.035703182,-3.638179302,-3.57390976,0.566392481,-0.862435877,-1.144329906,-2.533802986,-5.583863735,-2.21933794,-6.0120821,-0.556319356,-1.460198879,0.001266658,-0.539199412,-1.872390747,-1.344215393,-1.584064722,-2.354244709,-0.921323299,-1.429200768,0.771642148
65,13.5,LOW,24,2.35722661,6.244882107,1.78723681,2.30349493,5.010260582,6.28215313,4.567917347,3.771102667,5.452052593,5.206908226,5.626634598,4.045558929,2.852552176,3.911927938,2.956245422,3.068619013,6.720335484,2.137162924,5.176905155,1.864950061,6.611983299,5.333834171,5.354529381,3.229130507,7.080050945,6.205164909,3.206416368,3.694160223,3.787266254,3.406095505,3.958117485,7.098096371,10.36217785,6.518977642,4.328652382,7.598632336,8.670358658,7.83194828,5.411627769,8.873897552,9.495829582,8.055906296,7.759336472,4.676024437,4.132362843,4.686954975,5.675346851,10.36423016,6.48585701,7.423371792,4.354830742,8.593472481,8.004517555,8.401499748,5.372965336,11.52439976,8.24384594,3.704317808,4.321258545,3.42723465,4.928814888,4.220246792,7.139420986,8.449168205,6.617815018,4.075256824,6.808895111,7.373071671,5.831617355,3.985743999,9.252809525,6.635212421,7.282632828,6.671348572,4.860871792,3.674095154,3.351430178,3.615406752,10.1172142,7.62573719,7.890430927,4.412548065,7.485226154,6.911596298,6.983998775,3.564906359,10.84930897,7.607214451,3.829667568,4.333393097,3.463476896,3.730305433,4.084848404
66,14,LOW,28,2.906500101,6.422062874,2.943309307,1.921229482,5.293562889,6.850047112,7.340673923,7.135555744,4.251743317,7.118053436,6.224873066,4.278169155,3.015488386,3.955781221,5.618796349,7.031745434,4.882274151,2.872375965,4.738821507,3.03698349,6.384159565,6.896225452,7.346623421,6.503296852,5.880520821,5.751077175,2.328505516,3.750187159,2.683680534,4.897206783,5.458633423,4.679197311,9.490127563,4.727473259,1.140424967,7.169139862,10.42146778,9.967090607,10.49417973,6.868085861,10.16809177,8.823806763,5.926937103,3.143868685,5.726483822,7.256162167,9.946950912,8.352152824,4.426643372,6.550695419,2.567650795,9.962400436,9.394800186,11.35676289,9.979714394,9.648208618,8.10899353,1.947215199,4.182500362,2.995536804,5.551477909,8.792759895,4.736313343,7.761319637,4.750651836,1.079082012,6.403706074,6.932705879,8.207582474,7.607993603,6.607096195,8.183142662,7.315178394,5.807084084,3.220237255,3.777121782,6.659088135,7.85613203,7.117632866,4.098892212,5.738305092,2.250205994,6.867790699,7.578334808,7.671460629,7.522764206,7.277961731,6.327278614,1.900006056,4.000822067,2.526954412,4.995008945,5.396595478
67,15,LOW,26,-7.005361557,2.174929619,-7.432332516,-7.522048473,1.307889819,1.514735699,3.023862123,2.612448215,-2.828794479,2.840420961,2.166970015,-1.178615451,1.05177319,-1.01254487,3.593726158,3.313637018,-0.919353843,-8.754916191,-2.764557838,1.197584271,0.523701072,2.525866985,2.302965641,2.976155758,1.297030568,-1.057145476,-3.912984371,0.690407455,-2.054778337,1.667582273,0.537132382,-6.377902985,5.434811115,-6.140624523,-5.294944286,3.143408298,5.179524899,4.727993011,4.011804104,1.133663774,5.413232803,4.103183746,0.916922688,2.40356946,2.711788416,4.093865395,3.478893518,2.910023928,-6.941320896,-0.166668251,2.723441601,4.019146919,4.693462849,5.200922966,3.740846634,4.699852943,2.100218296,-1.5085572,1.93777597,0.872823179,2.446606398,4.019064903,-9.13711834,3.163278103,-9.219286919,-7.319447994,1.230458021,3.079361439,3.526911736,2.329621315,-1.135561585,3.054981232,2.418517113,-1.890559435,-0.187657982,1.373124003,4.584961891,2.010472775,0.976497889,-10.87800789,-2.428131342,-1.16285336,1.449027777,3.016264439,3.28229785,2.136652708,2.012618542,0.049931843,-3.344912291,1.559448242,-0.550934196,2.814704895,3.519251347
68,14,LOW,26,0.218430996,4.30846262,0.386376053,-5.222198486,3.826996803,2.185990572,3.787460327,2.702412844,2.15419364,4.223631382,3.761662245,3.007645845,0.764287055,-0.539975882,1.604474902,2.138311386,3.212563038,-0.542746425,0.230853766,3.040994644,1.543578744,3.877579689,3.240049124,1.711013794,3.970491171,0.486716062,-3.106003046,1.045861602,-2.41867733,1.246559381,0.43257156,-4.706669807,2.637271166,-3.600015163,-6.96871233,1.199556828,1.59947753,4.055393219,0.877220511,-1.829992414,3.804603338,2.741811275,-0.92613858,2.58925128,-0.000758008,3.977615356,0.57770735,-0.237232268,-4.830001831,-2.711822987,2.907803059,0.196567655,3.642081022,2.758270502,0.168736801,0.954442084,-1.351234674,-4.598000526,2.758896589,-2.191721916,4.718737602,1.081115484,-3.774605751,2.87116313,-2.045710087,-4.844800949,1.794967055,2.039268255,7.192295074,3.459168434,-2.97091341,4.525939465,3.534470081,-0.469588339,4.027562618,1.867501974,7.786105633,4.071953297,-2.055940151,-4.9346385,-2.954365253,2.010447741,-0.174192443,5.971326351,3.714702606,2.58265543,0.339267671,-1.690167069,-2.453151226,5.924599648,-0.221541643,8.364538193,2.947815895
69,11,LOW,21,1.905670047,1.755629778,0.780055046,0.500779748,-0.445882589,3.176359415,1.608219743,2.888737917,0.974717855,1.062780738,1.485675097,-0.013943817,0.702986896,3.011026621,3.620201588,1.470004559,1.223491907,0.548128903,2.074569464,-0.466551334,3.436336756,2.365841389,3.929522038,2.432794809,1.143755436,1.987615347,1.953059196,2.844474554,2.636713505,2.664410353,3.793884039,-0.196500033,3.397830248,0.498675078,-1.195120096,4.049148083,4.843878269,4.90461731,3.932391405,2.318522453,3.492358446,4.161164761,3.193193197,2.986865997,0.67505765,4.973668575,4.383963585,4.096144676,-1.351827502,1.592731714,2.110902786,4.173575878,4.57708025,5.023005009,3.669656992,3.352581978,3.104154348,0.277216166,3.077002048,0.18974857,4.249969959,1.387312531,4.464949608,5.180162907,4.431127071,1.399610281,5.358160973,7.569932461,6.968646526,4.216255665,4.32595396,4.929029465,6.329333782,4.621839046,3.298242569,5.047074318,6.643910885,4.522815704,6.347011089,2.95293045,3.776427507,3.034606457,6.903174877,7.261991501,7.037992001,4.593601704,5.890041351,5.50632,1.833136797,4.73055172,4.853983402,5.35260582,4.079210281
70,14,LOW,17,-22.13484192,-1.777209878,-23.84448624,-9.344267845,-4.911469936,-1.221354008,0.120292738,-0.268903524,-8.166176796,-0.617336512,-2.559908628,-9.103197098,-3.869139433,-0.732396781,-0.024056718,1.053599477,-6.002240181,-23.14263916,-9.697637558,-7.869646072,-2.614444971,-1.209120393,-0.60406965,-0.039464444,-3.635624409,-5.737859249,-4.363993168,-2.317158461,-1.750299573,-1.10667932,-1.06959033,-20.5164032,-0.978987217,-20.39317513,-8.520378113,-3.892589808,-0.82389307,1.233325601,-0.535570204,-8.087654114,0.839046955,-0.986080945,-7.156126499,-1.987186313,-2.023994207,1.575246215,1.153476834,-5.149206161,-21.16895294,-8.952612877,-6.165467262,-2.428954601,0.602291107,0.339401305,-0.474810272,-3.040206671,-5.691428661,-5.081237316,-0.951251626,-2.738891602,-0.723433793,-1.854809523,-17.95809174,-1.159895778,-17.79261017,-7.979351997,-2.116750002,-0.085493684,2.3105371,0.590639651,-6.461180687,0.485637814,-0.407956988,-6.695658684,-0.78290534,-0.572600424,1.525763869,1.637624383,-3.897428513,-19.11464119,-8.517010689,-4.011438847,-1.785380125,0.375751227,1.024608493,1.140672803,-1.850454688,-4.8160429,-4.041557312,0.452320248,-1.61187017,0.793496847,-0.996426702
71,20,LOW,18,-1.788251638,3.292188406,-4.395108223,0.901988506,1.881204247,7.173723221,2.480239868,2.623746634,1.585283041,3.909024239,3.128397942,0.389343083,1.401489377,5.978970051,-1.183287382,-0.198787674,1.756636024,-1.009114861,4.021783352,-0.755186915,6.495308399,2.701836109,7.371333599,1.181300759,2.955032349,5.733901024,3.710195541,1.111844063,5.481981754,0.224880189,4.435017109,-1.432491899,10.46999836,-1.311280489,-0.817362666,7.261505127,11.7175312,9.260437012,7.172084808,5.033699989,11.10990906,8.627580643,4.479310513,2.584840775,6.689516544,1.950285554,5.147078991,7.341330051,0.063795052,5.808003902,0.757548869,10.40596771,9.178041458,12.52245331,6.193588734,9.926298141,8.561532021,3.288829803,2.152144432,5.843895912,1.929536819,6.853019238,2.309607983,7.078108788,2.799750566,2.411691427,6.151598454,9.294765472,6.003360271,3.99946022,4.76731348,7.183933735,6.385021687,4.77950573,3.96564579,5.076138973,0.521919608,2.479003191,5.603434563,0.400677204,6.319787979,3.335299969,9.320498466,6.694762707,8.753987312,3.096660376,7.337471485,8.935890198,4.275695801,2.933695555,5.833471298,1.970200419,3.559135437
72,13,LOW,13,-4.505729198,2.200206995,-3.264834166,-2.734928846,0.042901028,3.744765759,3.137340069,5.088307858,-1.676917434,4.778195858,1.736672521,-0.565917253,0.719115615,2.527684689,3.144423485,3.786791086,-1.077908993,-4.936332703,-2.148879766,-0.097143494,2.125672102,2.1083951,5.555443287,4.294813633,-0.113486901,0.364103168,-0.857963264,1.46914494,1.088492393,2.626961708,3.40926981,-7.26216507,7.150427818,-7.819350243,-9.405294418,2.395103455,7.492698193,6.468357086,7.548580647,-1.929059744,10.1595459,4.088750839,-0.417907268,1.076777697,1.557309031,3.135076284,6.140039921,1.686954379,-10.95990562,-3.07041502,0.014940388,5.317246437,5.085049152,9.340641975,6.701157093,4.468231201,1.086713672,-4.385810852,1.813144565,-1.158727884,2.841049433,4.384352207,-6.829900742,6.620900631,-6.500049591,-9.29127121,3.457738876,6.843138695,5.274812698,4.847589493,1.015264034,8.506566048,5.287169933,1.157822847,0.63775152,2.887079239,1.559542894,3.229178667,3.472202778,-9.50069809,-2.144668102,-1.227395773,5.029158592,5.149489403,7.83482933,4.075826645,4.821489811,1.699042439,-4.249268055,1.077317357,-0.196905553,2.142904043,4.217595577
73,15,LOW,12,-1.677569866,-3.665359497,-1.622454166,-3.038567066,-1.501952529,-2.599338531,-2.290430307,-2.863269567,-3.745644808,-3.593744755,-1.609282851,-1.696525574,-1.538874626,-1.153223991,-1.654194117,-2.792330027,-3.97090435,-2.850955486,-3.624516487,-1.543843508,-2.879976511,-1.456636667,-2.515445709,-2.697414637,-3.897466898,-3.314322948,-2.573461533,-1.241670251,-1.732068777,-1.16362536,-1.111545563,0.612571239,2.463527918,2.681966066,0.593702435,3.927620173,3.240721941,2.431051016,0.806869447,1.786908269,1.724524379,3.968305588,2.287824392,1.993070006,2.619316578,2.559693813,1.196741581,2.224498272,0.272611916,1.288106799,1.69054389,2.93434,3.488621473,3.29280901,0.78724122,2.672810555,2.383079529,1.49094367,2.876871824,2.466498852,3.019645691,2.586742401,1.418062329,0.759944081,2.681761265,-0.689269662,2.983445883,0.305025131,2.629771471,-0.426229298,0.649598837,0.888631999,3.221204281,2.298230648,3.637186289,-1.055473566,2.215767145,0.791764855,0.671969831,1.881819844,-0.756821871,3.495905638,0.002869416,2.883518934,0.681257188,0.419460237,0.924823999,-0.12609756,-0.795312464,3.419499397,-0.59505868,2.882145882,-0.697961748
74,16,LOW,15,-3.172514915,0.148954019,-3.729061604,-2.257690907,-1.991420269,1.148721337,0.215655133,1.690869331,-2.163492918,-0.366496742,-0.533192813,-1.957533836,-0.813741624,1.064520478,1.905994296,0.689747691,-2.119265318,-4.090343475,-0.992368877,-1.779666662,1.38854897,0.285134375,2.411607742,1.449002147,-0.789544344,-0.219630614,-0.598864138,0.875368774,0.591788888,0.858213186,1.837734461,-5.794115067,7.176520824,-5.320183754,-3.648051262,3.379116058,6.379074097,7.945324898,5.554231644,0.434900939,8.052879333,5.420492172,0.909692585,0.889532804,2.239787579,4.896848202,6.185986042,3.698901415,-7.413497925,0.05291348,-1.54706955,5.099274635,6.746819496,7.51304388,5.260098934,5.622604847,2.916167498,-0.703553259,2.321272135,0.946317732,3.803863525,3.896933317,-2.673583984,8.092351913,-2.798384905,-1.650517464,4.800070286,5.484560013,8.8435812,4.630124092,0.16745007,7.734942436,7.167933464,1.675818086,2.237048149,3.250230312,6.832060337,6.242795467,4.016632557,-3.681813002,0.299837053,0.126860738,4.515928268,8.280122757,5.738316059,5.456629753,7.272633553,2.8525455,-0.26150617,4.53960228,2.264837742,4.837525368,3.853478193
75,12,LOW,21,0.551176906,3.566015005,-1.116002202,2.519818306,1.851519823,4.001408577,2.885135412,0.786506951,2.83444953,2.916261435,2.44260931,1.592902064,0.879143536,3.114763021,1.398114443,0.281254917,3.353456974,0.997043669,3.091949224,-0.246896774,4.107233524,2.972779989,3.40442276,0.271383077,3.622492313,3.564058781,2.70099926,0.208653927,3.134290934,1.533853531,1.796283484,1.02658999,4.875225544,0.405949205,-2.02346158,4.143930912,4.743061543,5.200832844,2.766555548,3.50849843,5.449543953,4.974397659,2.96331954,2.287140369,3.432389259,2.837671995,2.423125744,3.818461895,0.553972065,2.345998287,1.503090978,3.713201523,5.511518955,5.25887537,2.474530458,4.402552605,2.979605913,1.507394314,1.59190762,3.159644604,3.279613018,2.560407162,3.733342171,3.573597908,3.194582701,2.215199709,3.699530602,3.435839176,3.549900055,1.262318254,4.052127361,3.577192068,3.618626356,3.699317932,3.404985666,1.044165015,0.634194314,0.625222981,4.109195709,2.910353899,3.366246462,3.061465263,3.358752728,4.122166634,3.538172483,0.796475232,3.798279762,4.213825226,1.933637142,0.575361788,1.628044486,1.511898041,0.188083574
76,14,LOW,28,-3.873412609,1.303948045,-5.001124382,0.860022426,1.175467014,2.386655331,1.776560307,0.076465331,-0.26541245,0.738874674,2.14044404,-0.496501774,0.59333837,3.329497814,2.349299669,0.280500442,0.657786429,-4.664669037,-0.009894522,-0.230407745,2.367637873,2.460927248,1.934050679,-0.151487231,-0.226768911,1.229720831,1.811752915,1.492611647,2.474785566,2.547185659,2.82002759,-6.431898594,2.799847126,-7.457997322,-0.514854372,0.746867061,4.231797218,4.892440319,5.489121437,-0.749225497,4.611151695,2.40342021,-0.747901857,0.269101202,3.744149685,3.231472015,4.971909046,0.544335842,-6.128948689,-0.7012254,-2.558440447,2.700708151,3.608618975,6.025772095,5.292577744,-1.171660423,0.973028183,2.102755308,2.000368595,3.256133556,2.275313139,5.090898514,-1.464158058,5.49139595,-2.367505789,1.861728549,5.196681976,5.992770195,6.774625778,3.773152828,3.238236904,4.89586544,5.876431942,3.04818511,3.589702368,4.72637701,5.029360771,4.684790134,4.336615086,-1.753685474,3.023421288,1.959190369,5.567990303,6.698885918,5.991233826,4.036505699,5.314128399,4.625756741,3.573884249,3.86011076,4.274578094,4.666479588,5.345750809
77,13,LOW,25,-4.975976467,-1.01476872,-6.83825779,-3.840178967,-1.6720438,2.443225622,1.611947536,4.62024641,-1.552744508,0.836379945,-0.635931432,-1.744598031,-0.945206881,3.136093378,2.240701199,2.1041677,-1.730974197,-6.991600513,-1.184148669,-3.913166761,1.293176413,0.604503334,3.8037076,2.646430731,-2.282575607,0.396521389,-0.072581418,0.85360086,1.189136505,2.051326752,5.212090969,-8.227092743,-0.339118391,-10.06191921,-1.945868015,-3.230563879,2.23010993,-0.299516439,3.83315587,-2.786875725,0.95621109,-2.336809635,-4.983219624,-4.645602226,3.381836891,0.026779737,1.449090838,-2.020191908,-8.124036789,-1.543169141,-7.127176285,1.421018481,-1.138860583,3.023291349,2.169351101,-1.498431802,1.25419879,1.824455976,-2.801700592,2.597929239,-0.884411573,4.211707115,-9.084768295,-1.938703179,-11.06464195,-3.630702734,-3.753204346,0.627557278,-0.816821098,3.649845123,-3.361913919,-0.523673236,-3.850090027,-5.281622887,-5.166357517,1.920354366,0.912726104,2.250575781,-2.67225647,-9.716891289,-2.649100065,-8.61285305,-0.188017339,-2.269838095,1.521077514,2.33629179,-2.647683144,-1.162282825,-0.73912406,-3.452617884,-0.194711596,-1.625690699,3.681613207
78,14,LOW,28,4.383174419,5.072306156,3.076696634,1.793741941,4.372190475,4.916232109,5.097389221,3.940557718,5.224767208,5.142066002,4.462106705,4.953320503,2.517343998,2.843055725,3.548591614,3.956495523,4.862492085,2.188298941,4.749382496,2.35982132,4.801523685,4.741324902,4.783251762,3.207452536,4.561972618,5.050471783,2.470964909,2.995084763,2.259337187,3.06526494,2.283848524,-0.851911306,5.372648239,-1.765688419,-2.113026381,1.880732298,5.806405544,5.384385109,6.191347122,1.096361041,6.696675777,2.601688623,1.696562171,0.083401226,3.04970479,4.021932125,5.375627041,2.013831139,-2.118914366,1.04485774,0.826198518,4.450661182,4.088056564,7.428683758,5.366752148,3.686321974,3.094813347,-0.163793594,0.807749867,1.027749896,2.359580517,4.671259403,-3.429688215,4.502955914,-4.274693489,-3.159108639,-0.87924099,4.413567543,6.029691219,7.512541771,-2.546046257,6.641668797,1.671525002,-2.313341141,-1.052855849,1.981128812,6.287200928,6.988195419,-1.277804494,-5.448204994,-1.510702133,-2.174193621,1.547281027,4.397294044,5.4872756,6.454742432,1.499094725,-0.193367913,-1.93755424,1.980042458,-0.250221997,3.762667894,3.412244081
